wavelength	transmission	transmission
nm	%	%
	NaCl, not irradiated	NaCl, irradiated with X-rays
1100	86.724	72.188
1099.9	86.574	72.426
1099.8	86.657	72.101
1099.7	86.751	72.135
1099.6	86.721999	72.125
1099.5	86.472	72.209999
1099.4	86.706999	72.119
1099.3	86.384	72.11
1099.2	86.653	72.233999
1099.1	86.692	72.104
1099	86.632	72.074
1098.9	86.619	72.196
1098.8	86.692	72.173
1098.7	86.406	72.045
1098.6	86.685999	72.239
1098.5	86.587	72.145
1098.4	86.52	72.206999
1098.3	86.743	72.185
1098.2	86.665	72.167
1098.1	86.577	72.218999
1098	86.646999	72.239
1097.9	86.697999	72.178
1097.8	86.563	72.166
1097.7	86.447	72.151
1097.6	86.672	72.143
1097.5	86.661999	72.133
1097.4	86.456	72.08
1097.3	86.571	72.013
1097.2	86.641	72.099999
1097.1	86.574	72.145
1097	86.767	72.143999
1096.9	86.749	72.057999
1096.8	86.634	72.018
1096.7	86.563	71.950999
1096.6	86.53	72.119999
1096.5	86.45	72.099
1096.4	86.375999	72.05
1096.3	86.546	72.036999
1096.2	86.652	71.986
1096.1	86.572	72.053
1096	86.55	72.092
1095.9	86.595999	72.096999
1095.8	86.658	72.165
1095.7	86.798	72.131
1095.6	86.846	72.189
1095.5	86.649	72.142
1095.4	86.539999	71.984
1095.3	86.58	71.986
1095.2	86.665	71.945
1095.1	86.536999	71.943
1095	86.53	72.007
1094.9	86.682999	72.07
1094.8	86.487	72.026
1094.7	86.624	72.016
1094.6	86.597	72.060999
1094.5	86.565	71.944
1094.4	86.841	72.008
1094.3	86.812	72.124
1094.2	86.55	71.911
1094.1	86.572999	72.008
1094	86.678	71.879
1093.9	86.452	71.806
1093.8	86.79	71.938
1093.7	86.515	72.113
1093.6	86.562	71.973
1093.5	86.405	71.860999
1093.4	86.889	72.02
1093.3	86.582	72.043
1093.2	86.509	71.862
1093.1	86.394	71.874
1093	86.559	71.913
1092.9	86.578999	72.015
1092.8	86.585	71.992999
1092.7	86.763	71.923999
1092.6	86.696	72.026
1092.5	86.532	71.931
1092.4	86.48	71.887999
1092.3	86.555	71.909
1092.2	86.871	71.827
1092.1	86.809	71.91
1092	86.687	71.745
1091.9	86.708	71.898
1091.8	86.637	72.042
1091.7	86.661	72.084999
1091.6	86.728	72.047
1091.5	86.736999	71.992
1091.4	86.717999	71.992
1091.3	86.534	71.92
1091.2	86.571	71.989
1091.1	86.685999	71.913
1091	86.585	71.857
1090.9	86.468	71.997
1090.8	86.432	71.97
1090.7	86.426999	71.961
1090.6	86.524	71.950999
1090.5	86.673999	71.834
1090.4	86.68	71.965999
1090.3	86.66	71.974
1090.2	86.559	71.863999
1090.1	86.484	72.09
1090	86.688	72.019
1089.9	86.703	71.94
1089.8	86.523	71.937
1089.7	86.59	71.938999
1089.6	86.677	71.895
1089.5	86.632	71.906
1089.4	86.663	71.907
1089.3	86.554	71.902
1089.2	86.699	71.965999
1089.1	86.492999	71.908
1089	86.456999	71.922
1088.9	86.59	71.792999
1088.8	86.491	71.796
1088.7	86.445	71.873
1088.6	86.575	71.858999
1088.5	86.863	71.674
1088.4	86.475	71.819
1088.3	86.523	71.895
1088.2	86.452	71.789999
1088.1	86.545	71.879
1088	86.601	71.782
1087.9	86.456999	71.694999
1087.8	86.495	71.745
1087.7	86.509	71.961
1087.6	86.529	71.799
1087.5	86.506	71.751
1087.4	86.363999	71.822
1087.3	86.595	71.772
1087.2	86.447	71.871
1087.1	86.429999	71.818
1087	86.417	71.801
1086.9	86.45	71.813
1086.8	86.319	71.815
1086.7	86.473999	71.898
1086.6	86.611	71.797
1086.5	86.717999	71.733999
1086.4	86.693	71.763
1086.3	86.684	71.887
1086.2	86.656	71.879
1086.1	86.733999	71.711
1086	86.685999	71.765999
1085.9	86.562	71.73
1085.8	86.539999	71.667
1085.7	86.504	71.69
1085.6	86.575999	71.791
1085.5	86.53	71.774
1085.4	86.527	71.741
1085.3	86.465999	71.730999
1085.2	86.446	71.77
1085.1	86.587	71.77
1085	86.512	71.785
1084.9	86.536	71.788
1084.8	86.697	71.676
1084.7	86.64	71.739
1084.6	86.575	71.679999
1084.5	86.527	71.745
1084.4	86.58	71.958
1084.3	86.485999	71.813999
1084.2	86.692	71.783
1084.1	86.521	71.706
1084	86.623	71.726
1083.9	86.607999	71.714
1083.8	86.436	71.789999
1083.7	86.502	71.685
1083.6	86.518	71.685
1083.5	86.506	71.61
1083.4	86.414	71.564
1083.3	86.497999	71.69
1083.2	86.611	71.718999
1083.1	86.699	71.677
1083	86.358999	71.535
1082.9	86.69	71.667999
1082.8	86.752	71.705
1082.7	86.735	71.835
1082.6	86.846	71.63
1082.5	86.568	71.631999
1082.4	86.648	71.7
1082.3	86.462999	71.663
1082.2	86.595	71.696
1082.1	86.675	71.8
1082	86.560999	71.665
1081.9	86.57	71.598
1081.8	86.548	71.765999
1081.7	86.631	71.745
1081.6	86.534	71.686
1081.5	86.527	71.618
1081.4	86.483	71.645
1081.3	86.491	71.629
1081.2	86.456	71.52
1081.1	86.536	71.452
1081	86.492999	71.538
1080.9	86.487	71.559
1080.8	86.471	71.567
1080.7	86.536	71.579
1080.6	86.614	71.569999
1080.5	86.623	71.58
1080.4	86.334999	71.625
1080.3	86.414999	71.651
1080.2	86.587999	71.608
1080.1	86.594	71.628
1080	86.57	71.604
1079.9	86.527	71.53
1079.8	86.548999	71.468
1079.7	86.551999	71.536999
1079.6	86.523	71.72
1079.5	86.492999	71.625
1079.4	86.432	71.589
1079.3	86.543	71.622
1079.2	86.749	71.596
1079.1	86.543	71.533
1079	86.488	71.54
1078.9	86.462999	71.633
1078.8	86.421	71.501
1078.7	86.571	71.513
1078.6	86.602	71.566
1078.5	86.617	71.604999
1078.4	86.506	71.631999
1078.3	86.563999	71.583
1078.2	86.689	71.586
1078.1	86.577	71.658999
1078	86.611999	71.586
1077.9	86.599999	71.580999
1077.8	86.480999	71.614999
1077.7	86.443	71.556
1077.6	86.536999	71.643999
1077.5	86.514	71.477999
1077.4	86.653	71.499
1077.3	86.477999	71.519
1077.2	86.461	71.619999
1077.1	86.426	71.476
1077	86.390999	71.505
1076.9	86.452	71.504
1076.8	86.606	71.592999
1076.7	86.517	71.718
1076.6	86.492999	71.539
1076.5	86.551999	71.414999
1076.4	86.545	71.574
1076.3	86.56	71.560999
1076.2	86.632	71.595
1076.1	86.604	71.627
1076	86.518	71.566
1075.9	86.597	71.532
1075.8	86.548	71.453999
1075.7	86.578	71.441
1075.6	86.433	71.458
1075.5	86.395	71.448
1075.4	86.414	71.453999
1075.3	86.505	71.426999
1075.2	86.473999	71.477999
1075.1	86.5	71.516
1075	86.521	71.55
1074.9	86.536	71.509
1074.8	86.502	71.486
1074.7	86.479	71.527
1074.6	86.472	71.503
1074.5	86.458	71.479
1074.4	86.462999	71.48
1074.3	86.578	71.492999
1074.2	86.497999	71.484
1074.1	86.597	71.486999
1074	86.606	71.47
1073.9	86.646	71.464
1073.8	86.556	71.413
1073.7	86.488	71.348999
1073.6	86.572	71.413
1073.5	86.616	71.455
1073.4	86.634	71.433
1073.3	86.512	71.458
1073.2	86.526	71.465
1073.1	86.592	71.480999
1073	86.68	71.445
1072.9	86.663	71.453999
1072.8	86.761	71.279
1072.7	86.553	71.413
1072.6	86.507	71.36
1072.5	86.462	71.371
1072.4	86.438	71.445
1072.3	86.627	71.355
1072.2	86.58	71.369
1072.1	86.566	71.354
1072	86.556999	71.480999
1071.9	86.497	71.364999
1071.8	86.52	71.357
1071.7	86.48	71.411999
1071.6	86.431	71.442
1071.5	86.462999	71.464
1071.4	86.531	71.428
1071.3	86.581	71.327
1071.2	86.489	71.345
1071.1	86.665	71.298
1071	86.592	71.288
1070.9	86.594	71.331
1070.8	86.623	71.319
1070.7	86.609	71.407
1070.6	86.637	71.355999
1070.5	86.578999	71.313999
1070.4	86.595999	71.284
1070.3	86.655	71.34
1070.2	86.521	71.379
1070.1	86.462999	71.442
1070	86.497999	71.429
1069.9	86.528	71.335
1069.8	86.480999	71.272
1069.7	86.462999	71.255
1069.6	86.563999	71.284
1069.5	86.563999	71.307
1069.4	86.5	71.283
1069.3	86.602999	71.292999
1069.2	86.581	71.297
1069.1	86.458	71.276
1069	86.534	71.321
1068.9	86.566	71.246
1068.8	86.548	71.281
1068.7	86.617999	71.336
1068.6	86.5	71.33
1068.5	86.532	71.276
1068.4	86.512	71.19
1068.3	86.495	71.17
1068.2	86.502	71.235
1068.1	86.404	71.226
1068	86.443	71.152
1067.9	86.563	71.233999
1067.8	86.521	71.253999
1067.7	86.59	71.277999
1067.6	86.627	71.308
1067.5	86.569	71.282
1067.4	86.374	71.251
1067.3	86.438999	71.233999
1067.2	86.514	71.226999
1067.1	86.414	71.182
1067	86.492	71.221999
1066.9	86.574	71.047
1066.8	86.488	71.233999
1066.7	86.547	71.282
1066.6	86.688	71.233999
1066.5	86.652	71.212
1066.4	86.606	71.265
1066.3	86.639	71.19
1066.2	86.539	71.251
1066.1	86.479	71.236
1066	86.392	71.228
1065.9	86.518	71.152
1065.8	86.528	71.267
1065.7	86.448	71.177
1065.6	86.465999	71.12
1065.5	86.447	71.128
1065.4	86.568	71.079
1065.3	86.556999	71.167999
1065.2	86.487	71.149
1065.1	86.473999	71.096
1065	86.512999	71.143999
1064.9	86.417999	71.146
1064.8	86.363999	71.175999
1064.7	86.402	71.194
1064.6	86.533	71.208
1064.5	86.56	71.226
1064.4	86.441	71.179999
1064.3	86.413	71.158999
1064.2	86.436	71.107
1064.1	86.362	71.094
1064	86.367	71.114999
1063.9	86.393	71.146
1063.8	86.505	71.081
1063.7	86.492	71.036999
1063.6	86.459	71.072
1063.5	86.452	71.063
1063.4	86.414999	71.098
1063.3	86.482	71.158999
1063.2	86.491	71.134
1063.1	86.445	71.122
1063	86.361	71.116
1062.9	86.433	71.162
1062.8	86.492	71.131999
1062.7	86.471	71.081999
1062.6	86.465999	71.062
1062.5	86.487	71.096
1062.4	86.4	71.155999
1062.3	86.398	71.111999
1062.2	86.444	71.229
1062.1	86.581	71.211
1062	86.55	71.08
1061.9	86.48	71.096
1061.8	86.467	71.108999
1061.7	86.566	71.084999
1061.6	86.431	71.044
1061.5	86.369	71.095
1061.4	86.511	70.994
1061.3	86.450999	71.111999
1061.2	86.453	71.014
1061.1	86.374	71.027
1061	86.512999	71.036999
1060.9	86.334999	71.039
1060.8	86.441999	71.055
1060.7	86.497999	71.02
1060.6	86.492999	70.953999
1060.5	86.514	71.074
1060.4	86.402999	71.014
1060.3	86.517	71.009
1060.2	86.416	71.036999
1060.1	86.497	70.981
1060	86.556	70.986999
1059.9	86.551	71.014
1059.8	86.546	70.986
1059.7	86.324	70.938999
1059.6	86.429999	70.926999
1059.5	86.536999	70.991
1059.4	86.450999	70.999
1059.3	86.443	70.977999
1059.2	86.402	70.952
1059.1	86.458	70.952
1059	86.479	70.991
1058.9	86.476	71.007
1058.8	86.456	70.953999
1058.7	86.428	70.967
1058.6	86.468999	70.944
1058.5	86.518	70.972
1058.4	86.483	70.985
1058.3	86.445	70.887999
1058.2	86.409	70.938
1058.1	86.39	70.943
1058	86.429999	70.946
1057.9	86.355999	70.905
1057.8	86.38	70.877
1057.7	86.449	70.889
1057.6	86.502	70.929
1057.5	86.387	70.855
1057.4	86.485	70.919
1057.3	86.465	70.949
1057.2	86.429999	70.916
1057.1	86.487	70.934
1057	86.351	70.97
1056.9	86.408	70.908
1056.8	86.387	70.889
1056.7	86.396	70.903
1056.6	86.389	70.881
1056.5	86.405	70.887999
1056.4	86.488	70.902
1056.3	86.341	70.875999
1056.2	86.462999	70.92
1056.1	86.488	70.94
1056	86.438999	70.914
1055.9	86.475	70.906
1055.8	86.436	70.807
1055.7	86.377	70.862
1055.6	86.386	70.889
1055.5	86.476	70.899
1055.4	86.585	70.863
1055.3	86.425	70.86
1055.2	86.458	70.84
1055.1	86.443	70.857
1055	86.434	70.860999
1054.9	86.455	70.867
1054.8	86.455	70.837
1054.7	86.509	70.781
1054.6	86.497999	70.857
1054.5	86.421	70.923
1054.4	86.336	70.894
1054.3	86.292999	70.846
1054.2	86.404	70.808
1054.1	86.472	70.819
1054	86.338	70.816
1053.9	86.324	70.77
1053.8	86.355	70.763
1053.7	86.44	70.765
1053.6	86.458	70.718999
1053.5	86.443	70.706
1053.4	86.488	70.776
1053.3	86.543	70.799
1053.2	86.518	70.763
1053.1	86.448	70.806
1053	86.402	70.833
1052.9	86.358999	70.801
1052.8	86.378999	70.804
1052.7	86.462	70.789
1052.6	86.545	70.765
1052.5	86.539	70.753
1052.4	86.423	70.745
1052.3	86.409	70.738999
1052.2	86.447	70.69
1052.1	86.456999	70.709999
1052	86.382	70.758
1051.9	86.412	70.716
1051.8	86.399	70.733999
1051.7	86.497	70.726999
1051.6	86.429999	70.730999
1051.5	86.524	70.678
1051.4	86.382	70.753999
1051.3	86.399	70.775
1051.2	86.419	70.663
1051.1	86.443	70.711
1051	86.377	70.7
1050.9	86.455	70.732
1050.8	86.467	70.587999
1050.7	86.554	70.706
1050.6	86.452	70.7
1050.5	86.303	70.711
1050.4	86.465	70.653
1050.3	86.449	70.64
1050.2	86.455	70.718
1050.1	86.377	70.712
1050	86.389	70.750999
1049.9	86.404	70.725
1049.8	86.295999	70.651
1049.7	86.38	70.664
1049.6	86.375	70.643999
1049.5	86.405	70.615
1049.4	86.369	70.616
1049.3	86.409	70.648
1049.2	86.414	70.627
1049.1	86.547	70.631999
1049	86.492	70.648
1048.9	86.471	70.639
1048.8	86.437	70.625
1048.7	86.438	70.626
1048.6	86.45	70.625
1048.5	86.417999	70.648
1048.4	86.386	70.627
1048.3	86.385	70.593999
1048.2	86.417	70.604
1048.1	86.473	70.532
1048	86.475	70.531
1047.9	86.511	70.583
1047.8	86.545	70.571
1047.7	86.456	70.563
1047.6	86.408	70.611
1047.5	86.414999	70.596999
1047.4	86.402999	70.578
1047.3	86.468	70.593999
1047.2	86.458	70.616
1047.1	86.428	70.562
1047	86.453999	70.542
1046.9	86.406	70.523
1046.8	86.453	70.535
1046.7	86.492999	70.521
1046.6	86.44	70.542
1046.5	86.444	70.581
1046.4	86.455	70.485
1046.3	86.504	70.512
1046.2	86.475	70.564
1046.1	86.396	70.607
1046	86.349	70.537
1045.9	86.416	70.593999
1045.8	86.409	70.533999
1045.7	86.446	70.464
1045.6	86.294	70.581
1045.5	86.336	70.514
1045.4	86.331999	70.515
1045.3	86.385	70.492
1045.2	86.417	70.5
1045.1	86.323	70.43
1045	86.385	70.489999
1044.9	86.42	70.506999
1044.8	86.414999	70.474
1044.7	86.411	70.454
1044.6	86.341	70.461
1044.5	86.436	70.547
1044.4	86.349	70.465
1044.3	86.382	70.457
1044.2	86.371	70.447999
1044.1	86.322	70.443
1044	86.369	70.438
1043.9	86.387	70.421
1043.8	86.42	70.418
1043.7	86.46	70.419
1043.6	86.383	70.42
1043.5	86.377	70.425
1043.4	86.301	70.435999
1043.3	86.334999	70.416
1043.2	86.398	70.431999
1043.1	86.378	70.41
1043	86.342	70.396999
1042.9	86.372	70.39
1042.8	86.371	70.392
1042.7	86.363999	70.375
1042.6	86.334	70.411
1042.5	86.292999	70.425
1042.4	86.331	70.39
1042.3	86.456999	70.399
1042.2	86.425	70.363
1042.1	86.362	70.371
1042	86.407	70.343999
1041.9	86.429	70.339
1041.8	86.383	70.363
1041.7	86.355	70.374
1041.6	86.377	70.366
1041.5	86.365	70.345
1041.4	86.353	70.331
1041.3	86.404	70.313999
1041.2	86.326	70.308
1041.1	86.289	70.304
1041	86.37	70.284
1040.9	86.384	70.230999
1040.8	86.41	70.293
1040.7	86.444	70.27
1040.6	86.426	70.309999
1040.5	86.45	70.281
1040.4	86.394	70.304
1040.3	86.383	70.313999
1040.2	86.367999	70.289999
1040.1	86.319999	70.26
1040	86.35	70.27
1039.9	86.386	70.299
1039.8	86.396	70.301999
1039.7	86.295	70.265
1039.6	86.343	70.283
1039.5	86.343999	70.235
1039.4	86.417	70.275
1039.3	86.422	70.23
1039.2	86.435	70.218999
1039.1	86.4	70.235
1039	86.438999	70.282
1038.9	86.389	70.265
1038.8	86.311	70.28
1038.7	86.31	70.229
1038.6	86.334999	70.194999
1038.5	86.315	70.218999
1038.4	86.326	70.191999
1038.3	86.338	70.208
1038.2	86.342	70.187
1038.1	86.321	70.152
1038	86.301	70.17
1037.9	86.402999	70.202
1037.8	86.378999	70.178
1037.7	86.387	70.182999
1037.6	86.387	70.185
1037.5	86.355999	70.212
1037.4	86.321	70.221
1037.3	86.295999	70.193
1037.2	86.301	70.154
1037.1	86.295	70.142
1037	86.295	70.111
1036.9	86.325	70.116999
1036.8	86.337	70.147
1036.7	86.311	70.15
1036.6	86.348	70.201
1036.5	86.362	70.138
1036.4	86.361	70.123
1036.3	86.341	70.162
1036.2	86.414	70.198
1036.1	86.337	70.191999
1036	86.375999	70.196
1035.9	86.385	70.128
1035.8	86.284	70.093
1035.7	86.345	70.118
1035.6	86.381	70.056
1035.5	86.316	70.062
1035.4	86.316	70.091
1035.3	86.35	70.074
1035.2	86.375999	70.087999
1035.1	86.404	70.136
1035	86.363999	70.062
1034.9	86.433	70.105999
1034.8	86.412	70.062
1034.7	86.295	70.048
1034.6	86.292	70.089
1034.5	86.301	70.101
1034.4	86.334	70.037
1034.3	86.482	70.126
1034.2	86.441	70.028
1034.1	86.425	70.048999
1034	86.406	70.033999
1033.9	86.377	70.059
1033.8	86.447	69.993
1033.7	86.485	70.033999
1033.6	86.502	70.043
1033.5	86.497	70.077
1033.4	86.378999	70.062
1033.3	86.307999	70.038
1033.2	86.327	69.993
1033.1	86.345	69.999
1033	86.425	70.03
1032.9	86.473999	70.003
1032.8	86.41	69.986
1032.7	86.323	70.006999
1032.6	86.355999	69.985
1032.5	86.42	69.968
1032.4	86.492	69.989
1032.3	86.491	70.005
1032.2	86.419	69.971999
1032.1	86.394	69.952
1032	86.384	69.986999
1031.9	86.395	70.006999
1031.8	86.436	69.974999
1031.7	86.459	69.945
1031.6	86.45	69.896
1031.5	86.404	69.91
1031.4	86.408	69.929
1031.3	86.417999	69.92
1031.2	86.44	69.908
1031.1	86.487	69.913
1031	86.428	69.908
1030.9	86.383	69.919
1030.8	86.390999	69.922
1030.7	86.307999	69.914
1030.6	86.378999	69.899999
1030.5	86.382	69.891
1030.4	86.397	69.881
1030.3	86.367	69.872
1030.2	86.322	69.886
1030.1	86.373	69.83
1030	86.456	69.87
1029.9	86.488	69.855
1029.8	86.484	69.874
1029.7	86.465	69.899999
1029.6	86.401	69.894
1029.5	86.438999	69.914
1029.4	86.390999	69.895
1029.3	86.438999	69.869
1029.2	86.382	69.843999
1029.1	86.33	69.828
1029	86.273	69.806
1028.9	86.26	69.81
1028.8	86.31	69.789999
1028.7	86.453999	69.821
1028.6	86.44	69.825999
1028.5	86.41	69.825
1028.4	86.324	69.832
1028.3	86.271	69.813
1028.2	86.299	69.813
1028.1	86.325	69.827
1028	86.337	69.867
1027.9	86.333	69.816999
1027.8	86.299	69.807
1027.7	86.258	69.8
1027.6	86.294	69.733999
1027.5	86.324	69.768
1027.4	86.366	69.742999
1027.3	86.396	69.741
1027.2	86.323	69.759
1027.1	86.328999	69.74
1027	86.361	69.752
1026.9	86.38	69.755
1026.8	86.355999	69.758
1026.7	86.315	69.776
1026.6	86.292999	69.788
1026.5	86.285	69.753
1026.4	86.312999	69.750999
1026.3	86.339	69.772
1026.2	86.334	69.727999
1026.1	86.301	69.687
1026	86.341	69.703
1025.9	86.316999	69.717
1025.8	86.341	69.703999
1025.7	86.369	69.71
1025.6	86.334	69.727999
1025.5	86.351999	69.756
1025.4	86.339999	69.759
1025.3	86.273	69.706
1025.2	86.361	69.723
1025.1	86.312999	69.688
1025	86.303	69.642
1024.9	86.261	69.61
1024.8	86.339	69.632
1024.7	86.326	69.658
1024.6	86.336	69.651
1024.5	86.414999	69.65
1024.4	86.392	69.607
1024.3	86.407	69.647
1024.2	86.355	69.652
1024.1	86.288	69.643999
1024	86.373	69.675
1023.9	86.268	69.628999
1023.8	86.238	69.652999
1023.7	86.322	69.579
1023.6	86.324	69.632
1023.5	86.319	69.615
1023.4	86.292999	69.589
1023.3	86.334999	69.567
1023.2	86.421	69.562
1023.1	86.366	69.583
1023	86.382	69.611
1022.9	86.322	69.59
1022.8	86.319	69.589
1022.7	86.355	69.614
1022.6	86.334	69.63
1022.5	86.303	69.571
1022.4	86.297	69.568
1022.3	86.276	69.565
1022.2	86.249	69.572999
1022.1	86.301	69.544
1022	86.304	69.544
1021.9	86.316	69.528
1021.8	86.339	69.532
1021.7	86.328	69.538
1021.6	86.325	69.54
1021.5	86.292999	69.543
1021.4	86.316999	69.56
1021.3	86.345	69.557
1021.2	86.309	69.516
1021.1	86.316999	69.494
1021	86.249	69.474999
1020.9	86.259	69.486
1020.8	86.280999	69.486999
1020.7	86.318	69.477
1020.6	86.386	69.477
1020.5	86.371	69.474999
1020.4	86.342	69.486999
1020.3	86.319999	69.455
1020.2	86.299	69.434
1020.1	86.319999	69.473
1020	86.316	69.485
1019.9	86.327	69.477999
1019.8	86.324	69.452
1019.7	86.306	69.449
1019.6	86.284	69.434
1019.5	86.33	69.41
1019.4	86.385	69.420999
1019.3	86.413	69.366
1019.2	86.323	69.392
1019.1	86.321	69.378
1019	86.316	69.435999
1018.9	86.294	69.394
1018.8	86.327	69.423
1018.7	86.353	69.418
1018.6	86.283	69.396
1018.5	86.328	69.399999
1018.4	86.221	69.394
1018.3	86.246	69.405
1018.2	86.273	69.37
1018.1	86.328999	69.367999
1018	86.343999	69.357
1017.9	86.303	69.343
1017.8	86.316	69.311
1017.7	86.385	69.359
1017.6	86.351999	69.318
1017.5	86.355	69.324
1017.4	86.284	69.33
1017.3	86.311	69.319
1017.2	86.309	69.347
1017.1	86.303	69.343
1017	86.273	69.358
1016.9	86.267	69.304
1016.8	86.201	69.297
1016.7	86.217	69.271
1016.6	86.241999	69.293
1016.5	86.294	69.297
1016.4	86.312	69.269
1016.3	86.35	69.283
1016.2	86.334999	69.293
1016.1	86.307	69.276
1016	86.288	69.291
1015.9	86.312	69.298
1015.8	86.338	69.28
1015.7	86.327	69.307
1015.6	86.268999	69.286
1015.5	86.244	69.246
1015.4	86.280999	69.232
1015.3	86.312	69.23
1015.2	86.339	69.215999
1015.1	86.343999	69.21
1015	86.324	69.221
1014.9	86.325	69.215999
1014.8	86.336	69.221
1014.7	86.343	69.261
1014.6	86.372	69.241
1014.5	86.358	69.221
1014.4	86.292999	69.225
1014.3	86.233	69.196
1014.2	86.224999	69.191
1014.1	86.232	69.161
1014	86.27	69.166
1013.9	86.328	69.140999
1013.8	86.322	69.167
1013.7	86.307	69.135
1013.6	86.319999	69.14
1013.5	86.275	69.123
1013.4	86.372	69.149
1013.3	86.312999	69.155
1013.2	86.304	69.171
1013.1	86.226	69.13
1013	86.211	69.123
1012.9	86.206	69.103
1012.8	86.267	69.086
1012.7	86.264	69.048
1012.6	86.26	69.077999
1012.5	86.235	69.105999
1012.4	86.232	69.081999
1012.3	86.276	69.101
1012.2	86.304999	69.113
1012.1	86.315	69.072999
1012	86.288	69.108999
1011.9	86.241	69.102
1011.8	86.182	69.076
1011.7	86.231	69.047
1011.6	86.306	69.033999
1011.5	86.284	69.045
1011.4	86.273	69.025
1011.3	86.241	69.029
1011.2	86.256999	69.009
1011.1	86.277	68.996
1011	86.291	68.997
1010.9	86.353	69.003
1010.8	86.343999	69.044
1010.7	86.302	69.087
1010.6	86.233999	69.023
1010.5	86.236	68.998
1010.4	86.201	69.018
1010.3	86.181	69.014
1010.2	86.25	68.994999
1010.1	86.259	68.971999
1010	86.248	68.941
1009.9	86.249	68.955
1009.8	86.241	68.959999
1009.7	86.243	68.934
1009.6	86.28	68.969
1009.5	86.302	68.986
1009.4	86.248	68.961
1009.3	86.261	68.976
1009.2	86.204	68.986999
1009.1	86.175	68.932999
1009	86.199	68.926
1008.9	86.182999	68.943
1008.8	86.196	68.937
1008.7	86.204	68.911
1008.6	86.211	68.884
1008.5	86.246	68.894
1008.4	86.206	68.946
1008.3	86.259	68.922
1008.2	86.264	68.935
1008.1	86.282	68.901
1008	86.285	68.908
1007.9	86.238	68.896999
1007.8	86.22	68.882
1007.7	86.170999	68.886
1007.6	86.206999	68.833999
1007.5	86.236999	68.837
1007.4	86.191	68.822
1007.3	86.265	68.791
1007.2	86.295	68.828999
1007.1	86.215	68.825999
1007	86.265	68.825
1006.9	86.221	68.822
1006.8	86.229999	68.849
1006.7	86.221	68.83
1006.6	86.217	68.83
1006.5	86.252	68.813999
1006.4	86.244	68.783
1006.3	86.191	68.786
1006.2	86.192	68.766
1006.1	86.226	68.784
1006	86.241999	68.76
1005.9	86.22	68.747
1005.8	86.196	68.721
1005.7	86.218999	68.755
1005.6	86.244	68.757
1005.5	86.261	68.773
1005.4	86.208	68.8
1005.3	86.196	68.756
1005.2	86.162	68.75
1005.1	86.164	68.745
1005	86.172	68.735999
1004.9	86.182	68.688
1004.8	86.197999	68.671
1004.7	86.191	68.685
1004.6	86.217999	68.679999
1004.5	86.229999	68.678
1004.4	86.229	68.686
1004.3	86.27	68.701
1004.2	86.265999	68.723
1004.1	86.256	68.718
1004	86.26	68.688
1003.9	86.235	68.655
1003.8	86.203	68.645
1003.7	86.178999	68.666
1003.6	86.238	68.65
1003.5	86.199	68.645
1003.4	86.212999	68.615
1003.3	86.228	68.628999
1003.2	86.249	68.62
1003.1	86.232	68.640999
1003	86.246	68.669
1002.9	86.231	68.631
1002.8	86.226	68.593
1002.7	86.249	68.6
1002.6	86.18	68.616999
1002.5	86.215	68.574
1002.4	86.209999	68.587
1002.3	86.212999	68.572
1002.2	86.215	68.561
1002.1	86.212999	68.547
1002	86.185	68.563
1001.9	86.233	68.54
1001.8	86.185	68.572999
1001.7	86.158	68.569999
1001.6	86.218999	68.592
1001.5	86.109	68.533
1001.4	86.137	68.518999
1001.3	86.158	68.557
1001.2	86.214	68.529
1001.1	86.193	68.517
1001	86.19	68.509
1000.9	86.189	68.452
1000.8	86.144	68.471999
1000.7	86.209	68.474999
1000.6	86.265	68.455
1000.5	86.204	68.486999
1000.4	86.221	68.489999
1000.3	86.185999	68.474
1000.2	86.223	68.478
1000.1	86.211	68.498
1000	86.157	68.481
999.9	86.146999	68.423999
999.8	86.137	68.423
999.7	86.205	68.402
999.6	86.231	68.405
999.5	86.212	68.408999
999.4	86.209	68.413
999.3	86.178	68.395
999.2	86.187	68.407
999.1	86.19	68.427
999	86.19	68.439
998.9	86.209999	68.41
998.8	86.182	68.378
998.7	86.161	68.36
998.6	86.158999	68.367999
998.5	86.176	68.377
998.4	86.205	68.345999
998.3	86.201	68.342
998.2	86.194	68.348
998.1	86.167	68.333999
998	86.197999	68.354
997.9	86.173	68.371
997.8	86.184	68.372999
997.7	86.14	68.383
997.6	86.16	68.395
997.5	86.17	68.310999
997.4	86.149	68.322
997.3	86.178999	68.306
997.2	86.169	68.292
997.1	86.162	68.291
997	86.223	68.304
996.9	86.233999	68.277
996.8	86.218999	68.273
996.7	86.154	68.277
996.6	86.193	68.301999
996.5	86.218999	68.288
996.4	86.136	68.277
996.3	86.170999	68.271
996.2	86.154	68.239
996.1	86.128	68.21
996	86.173999	68.241
995.9	86.170999	68.218
995.8	86.177	68.188
995.7	86.172	68.227
995.6	86.173999	68.218999
995.5	86.136	68.209
995.4	86.154	68.211999
995.3	86.139	68.206999
995.2	86.19	68.21
995.1	86.194999	68.22
995	86.15	68.194999
994.9	86.178999	68.206999
994.8	86.169	68.16
994.7	86.193	68.127
994.6	86.166	68.121
994.5	86.146	68.134
994.4	86.170999	68.147
994.3	86.168	68.13
994.2	86.194	68.147
994.1	86.176	68.132
994	86.111999	68.117
993.9	86.097	68.115
993.8	86.127	68.134
993.7	86.154	68.131
993.6	86.176	68.089999
993.5	86.178999	68.061
993.4	86.127	68.074
993.3	86.109	68.065
993.2	86.107999	68.053
993.1	86.142	68.062
993	86.157	68.069999
992.9	86.149	68.081999
992.8	86.176	68.078
992.7	86.126	68.057999
992.6	86.116	68.039
992.5	86.121	68.025
992.4	86.101	68.013
992.3	86.155	68.03
992.2	86.143	68.02
992.1	86.13	68.005
992	86.148	67.978
991.9	86.138	67.999
991.8	86.197	67.977
991.7	86.163	67.979999
991.6	86.157	67.986
991.5	86.16	68.021
991.4	86.153	67.976
991.3	86.122	67.991
991.2	86.153	67.978
991.1	86.142	67.917
991	86.137	67.952
990.9	86.101	67.894
990.8	86.155	67.915
990.7	86.138	67.88
990.6	86.154	67.923999
990.5	86.182	67.907
990.4	86.182999	67.935999
990.3	86.217999	67.898
990.2	86.146999	67.926
990.1	86.131999	67.918
990	86.164	67.89
989.9	86.131999	67.895
989.8	86.075999	67.879
989.7	86.065	67.878
989.6	86.16	67.892
989.5	86.131	67.869999
989.4	86.106	67.849
989.3	86.158	67.848
989.2	86.141	67.815
989.1	86.16	67.844
989	86.181	67.825
988.9	86.17	67.827
988.8	86.152	67.842
988.7	86.122	67.825999
988.6	86.113	67.812
988.5	86.084999	67.819
988.4	86.113	67.796
988.3	86.126	67.759999
988.2	86.098	67.762999
988.1	86.090999	67.75
988	86.102999	67.756
987.9	86.121	67.77
987.8	86.164	67.767
987.7	86.176	67.769
987.6	86.149	67.781
987.5	86.13	67.77
987.4	86.094	67.735
987.3	86.062	67.744
987.2	86.068999	67.718999
987.1	86.099999	67.691999
987	86.119	67.699
986.9	86.133	67.694
986.8	86.141	67.686
986.7	86.131	67.676
986.6	86.125	67.657
986.5	86.113	67.67
986.4	86.182	67.647
986.3	86.146999	67.685
986.2	86.117	67.674
986.1	86.097	67.671
986	86.131	67.64
985.9	86.114999	67.611
985.8	86.099	67.589999
985.7	86.127	67.621
985.6	86.102	67.611
985.5	86.099999	67.616
985.4	86.138	67.587
985.3	86.116	67.616
985.2	86.156	67.649
985.1	86.175	67.601999
985	86.107	67.601999
984.9	86.089	67.596
984.8	86.092	67.538
984.7	86.125	67.545999
984.6	86.111	67.566
984.5	86.111999	67.522
984.4	86.119	67.523
984.3	86.119999	67.536
984.2	86.087999	67.537
984.1	86.131999	67.541
984	86.123	67.554999
983.9	86.154	67.535
983.8	86.158999	67.544
983.7	86.090999	67.533
983.6	86.087999	67.5
983.5	86.081	67.5
983.4	86.099	67.491
983.3	86.083	67.49
983.2	86.106	67.461
983.1	86.107	67.473
983	86.093	67.456999
982.9	86.092	67.465
982.8	86.081	67.447999
982.7	86.084999	67.444
982.6	86.119999	67.456999
982.5	86.127	67.485
982.4	86.126	67.479999
982.3	86.146	67.420999
982.2	86.104	67.401
982.1	86.099999	67.387
982	86.126	67.379
981.9	86.123	67.398
981.8	86.124	67.398
981.7	86.081	67.367
981.6	86.081	67.372
981.5	86.068999	67.381999
981.4	86.087999	67.384999
981.3	86.119	67.364999
981.2	86.111999	67.372
981.1	86.086	67.378
981	86.068	67.379
980.9	86.087999	67.352999
980.8	86.098	67.336
980.7	86.113	67.324
980.6	86.111	67.3
980.5	86.082	67.247999
980.4	86.007	67.2
980.3	86.038	67.222
980.2	85.980999	67.242999
980.1	86.089	67.265
980	86.166	67.25
979.9	86.044	67.199
979.8	86.081	67.218
979.7	86.041	67.099
979.6	86.105	67.179
979.5	85.987	67.199
979.4	86.058	67.224999
979.3	86.002	67.274
979.2	86.084999	67.162
979.1	86.062	67.22
979	86.101	67.127
978.9	86.097	67.166
978.8	86.097	67.127
978.7	86.109	67.162
978.6	86.024999	67.149
978.5	86.089	67.152
978.4	86.036999	67.116
978.3	86.051	67.104
978.2	86.11	67.072
978.1	86.087999	67.059
978	86.095999	67.069
977.9	86.099999	67.064
977.8	86.065	67.059
977.7	86.068	67.053
977.6	86.098	67.066999
977.5	86.101	67.098
977.4	86.023	67.096
977.3	86.016	67.09
977.2	86.027	67.062
977.1	86.007	67.03
977	86.081	66.99
976.9	86.128	66.994
976.8	86.126	67.033
976.7	86.079	67.025
976.6	86.046	67.007
976.5	86.126	66.980999
976.4	86.16	66.971999
976.3	86.093	67.002
976.2	86.041	66.968
976.1	86.008	66.935999
976	85.974999	66.952
975.9	85.995	66.942
975.8	86.019	66.904
975.7	86.084999	66.919
975.6	86.06	66.912
975.5	86.084999	66.965
975.4	86.048999	66.907
975.3	86.041	66.863
975.2	86.056999	66.896999
975.1	86.065	66.911
975	86.079	66.872
974.9	86.077	66.881999
974.8	86.047	66.89
974.7	86.034	66.901
974.6	86.083	66.822999
974.5	86.075999	66.837999
974.4	86.056	66.816
974.3	86.034	66.848
974.2	86.034	66.871
974.1	85.989999	66.852
974	86.105	66.842
973.9	86.004	66.815
973.8	86.102999	66.789
973.7	86.087999	66.827
973.6	86.036999	66.825
973.5	86.012	66.795
973.4	86.001	66.783999
973.3	86.079	66.734
973.2	86.099	66.793
973.1	86.072999	66.762999
973	86.066	66.747
972.9	86.048999	66.724
972.8	86.06	66.741
972.7	86.102	66.762
972.6	86.119999	66.786
972.5	86.122	66.729
972.4	85.977	66.705
972.3	86.058	66.735999
972.2	86.017	66.69
972.1	86.045	66.683
972	86.021	66.673
971.9	85.999	66.648
971.8	86.027	66.66
971.7	86.029	66.672
971.6	86.042	66.66
971.5	86.026	66.649999
971.4	86.029	66.627
971.3	86.002	66.655
971.2	86	66.686
971.1	85.995	66.664
971	86.027	66.642
970.9	86.007	66.595
970.8	85.977	66.574
970.7	86.036999	66.577
970.6	86.02	66.578999
970.5	86.024999	66.572
970.4	85.995	66.589
970.3	85.997999	66.608999
970.2	86.021	66.574999
970.1	86.044	66.539
970	86.016	66.515
969.9	85.964	66.486
969.8	85.992	66.53
969.7	86.047	66.498
969.6	86.018	66.491
969.5	86.063	66.456
969.4	86.012999	66.444999
969.3	86.07	66.463
969.2	86.051	66.480999
969.1	86.066	66.486999
969	85.96	66.5
968.9	85.959	66.497
968.8	85.992	66.456
968.7	86.129	66.452
968.6	86.006	66.479999
968.5	86.007	66.401
968.4	86.056999	66.396
968.3	85.983	66.414
968.2	86.075999	66.386
968.1	86.083	66.420999
968	86.060999	66.383
967.9	86.021999	66.375
967.8	85.967	66.381
967.7	86.024	66.357
967.6	85.982	66.33
967.5	86.036999	66.324
967.4	86.063	66.355
967.3	85.984	66.348
967.2	86.012999	66.341
967.1	85.980999	66.349
967	85.977999	66.327
966.9	86.039	66.357
966.8	86.004	66.355
966.7	85.980999	66.33
966.6	85.987	66.349999
966.5	85.994	66.313
966.4	85.985	66.282
966.3	86.024999	66.235999
966.2	86.056999	66.271
966.1	86.024	66.281
966	86.007	66.223
965.9	86.067	66.188
965.8	86.039	66.22
965.7	86.044	66.230999
965.6	86.044	66.208
965.5	86.026	66.195
965.4	86.041	66.196
965.3	86.048	66.196999
965.2	86.036999	66.212999
965.1	85.988	66.184
965	85.992999	66.186
964.9	86.005	66.184
964.8	85.980999	66.13
964.7	85.997	66.133
964.6	85.989999	66.137
964.5	86.063	66.122
964.4	86.072999	66.145
964.3	86.04	66.093999
964.2	86.102	66.13
964.1	86.021	66.093
964	86.009	66.057999
963.9	85.983	66.09
963.8	85.909	66.086999
963.7	85.977999	66.084
963.6	86.028	66.045
963.5	86.026	66.01
963.4	86.038	66.044
963.3	85.991	66.057
963.2	86.042	66.038
963.1	86.016	66.042999
963	85.989	66.023
962.9	86.127	66.044
962.8	85.992999	66.015
962.7	86.079	65.968
962.6	86.066	65.932
962.5	85.952	65.982
962.4	85.947	65.901
962.3	85.979	65.971
962.2	86.021	65.956999
962.1	86.119	65.937
962	86.018	65.922
961.9	85.997	65.939
961.8	86.039	65.95
961.7	86.03	65.893
961.6	86.012999	65.926
961.5	86.03	65.901
961.4	86.035	65.904
961.3	86.02	65.916
961.2	86	65.881
961.1	85.956999	65.869999
961	86.011	65.857
960.9	85.995	65.9
960.8	85.977999	65.863
960.7	86.006	65.829
960.6	86.024	65.842999
960.5	85.994	65.854
960.4	85.962999	65.844
960.3	85.965999	65.828
960.2	85.958	65.802
960.1	85.948	65.798999
960	85.977	65.773
959.9	85.941999	65.764
959.8	85.980999	65.779
959.7	85.994	65.774999
959.6	85.973999	65.77
959.5	86.003	65.764
959.4	86.011	65.786
959.3	85.974999	65.788
959.2	86.036	65.794
959.1	86.003	65.771999
959	85.982	65.75
958.9	85.985999	65.714
958.8	86.04	65.697
958.7	85.989999	65.718
958.6	85.914999	65.678
958.5	85.926999	65.656
958.4	85.997999	65.697
958.3	86.05	65.684
958.2	85.922	65.664
958.1	85.968999	65.724
958	86.012	65.671
957.9	86.011	65.647
957.8	86.003	65.585
957.7	85.94	65.586999
957.6	85.968999	65.605999
957.5	85.977999	65.641
957.4	86.026	65.61
957.3	85.955	65.596
957.2	85.923	65.593
957.1	85.985999	65.58
957	85.953	65.551
956.9	85.907	65.553
956.8	85.992	65.52
956.7	85.967	65.563
956.6	85.973	65.518
956.5	85.97	65.526
956.4	85.962999	65.51
956.3	85.95	65.503999
956.2	85.953	65.483
956.1	85.999	65.495
956	86.035	65.494
955.9	85.999	65.48
955.8	85.956	65.476
955.7	85.983	65.422
955.6	85.958	65.437
955.5	85.913	65.434
955.4	85.936	65.411
955.3	85.977999	65.429999
955.2	85.956999	65.439
955.1	85.948	65.413
955	85.980999	65.399
954.9	86.008	65.405999
954.8	86.029	65.388
954.7	85.992	65.384
954.6	85.953	65.398
954.5	85.949	65.371
954.4	85.924	65.346999
954.3	85.968	65.363
954.2	86.005	65.374
954.1	85.976	65.376
954	85.917	65.345
953.9	85.953	65.322
953.8	85.945	65.328
953.7	85.97	65.285
953.6	85.953999	65.297
953.5	86.032	65.3
953.4	86.056	65.334
953.3	86.014	65.307999
953.2	85.997999	65.286999
953.1	85.944	65.283
953	85.92	65.271999
952.9	85.9	65.208999
952.8	85.887	65.207
952.7	85.968999	65.199
952.6	86.011	65.166
952.5	85.923	65.212999
952.4	85.979	65.198
952.3	85.962	65.208999
952.2	85.934	65.21
952.1	85.94	65.218
952	85.962	65.169
951.9	86.021	65.152
951.8	85.958	65.152
951.7	85.929999	65.125
951.6	85.919	65.136
951.5	85.909	65.124
951.4	85.929999	65.133
951.3	85.929	65.121
951.2	85.977999	65.129
951.1	85.936	65.13
951	85.816	65.117
950.9	85.874	65.078999
950.8	85.916	65.081
950.7	85.905	65.085
950.6	85.953	65.096
950.5	85.894	65.061
950.4	85.865	65.06
950.3	85.907	65.022
950.2	85.965999	65.001
950.1	85.936	65.02
950	85.956	64.999
949.9	85.914	65.001
949.8	85.94	64.983
949.7	85.952	64.991
949.6	85.897	64.986999
949.5	85.911	65.003999
949.4	85.916	64.986999
949.3	85.902	64.949
949.2	85.905	64.962
949.1	85.918	64.959999
949	85.989	64.937
948.9	85.979	64.94
948.8	85.95	64.935
948.7	85.956	64.962
948.6	85.914	64.932
948.5	85.904	64.903
948.4	85.919	64.919
948.3	85.928	64.898
948.2	85.961	64.878999
948.1	85.924	64.834
948	85.909	64.837
947.9	85.934	64.868
947.8	85.902	64.798
947.7	85.926999	64.834999
947.6	85.958	64.809
947.5	85.962	64.8
947.4	85.911	64.81
947.3	85.886	64.805
947.2	85.884	64.783999
947.1	85.877	64.793
947	85.941999	64.782
946.9	85.921	64.732999
946.8	85.907	64.738
946.7	85.887	64.685999
946.6	85.873	64.751
946.5	85.887	64.717
946.4	85.914999	64.685
946.3	85.925	64.714
946.2	85.916	64.751
946.1	85.863	64.718
946	85.901	64.681999
945.9	85.926999	64.712999
945.8	85.887999	64.666
945.7	85.907	64.655
945.6	85.922	64.661999
945.5	85.937	64.625
945.4	85.936	64.649
945.3	85.995	64.655
945.2	85.9	64.653
945.1	85.921	64.625999
945	85.887999	64.613
944.9	85.863999	64.622999
944.8	85.912	64.601
944.7	85.92	64.616
944.6	85.956	64.587999
944.5	85.95	64.575999
944.4	85.9	64.573
944.3	85.905	64.581
944.2	85.908	64.59
944.1	85.943	64.596
944	85.948	64.566
943.9	85.922	64.549
943.8	85.928	64.531
943.7	85.923	64.527999
943.6	85.962999	64.512
943.5	85.941	64.476
943.4	85.9	64.453999
943.3	85.934999	64.468
943.2	85.938999	64.47
943.1	85.914	64.455
943	85.934	64.463
942.9	85.943	64.47
942.8	85.918	64.476999
942.7	85.902	64.435
942.6	85.956999	64.383
942.5	85.906	64.408
942.4	85.933	64.393999
942.3	85.96	64.405
942.2	85.890999	64.4
942.1	85.923	64.363
942	85.878	64.328
941.9	85.897	64.363
941.8	85.924	64.383
941.7	85.906	64.374
941.6	85.86	64.354999
941.5	85.851999	64.352
941.4	85.833	64.361
941.3	85.823	64.301
941.2	85.885	64.267
941.1	85.938999	64.295999
941	85.914999	64.283999
940.9	85.944	64.259
940.8	85.911	64.278
940.7	85.905	64.276
940.6	85.914	64.244999
940.5	85.812999	64.298999
940.4	85.821	64.204
940.3	85.840999	64.248
940.2	85.846999	64.211
940.1	85.902999	64.183
940	85.896	64.192
939.9	85.933	64.156
939.8	85.908	64.192
939.7	85.899	64.188
939.6	85.894	64.2
939.5	85.899	64.157
939.4	85.895	64.153
939.3	85.839	64.166
939.2	85.846	64.09
939.1	85.89	64.12
939	85.86	64.099999
938.9	85.834	64.092
938.8	85.811	64.085
938.7	85.88	64.105
938.6	85.911	64.102
938.5	85.879	64.078999
938.4	85.846999	64.043
938.3	85.85	64.041
938.2	85.858999	64.056
938.1	85.883	64.065
938	85.896	64.042
937.9	85.85	64.017
937.8	85.848	64.021
937.7	85.871	64.014
937.6	85.878	63.993999
937.5	85.823	63.974
937.4	85.828999	63.978
937.3	85.913	63.991
937.2	85.924	63.974
937.1	85.858	63.962
937	85.807999	63.974
936.9	85.795999	63.975
936.8	85.834	63.944
936.7	85.875	63.932999
936.6	85.846	63.92
936.5	85.845	63.912
936.4	85.871	63.92
936.3	85.845	63.902
936.2	85.881	63.915
936.1	85.823	63.910999
936	85.862	63.851
935.9	85.824999	63.891
935.8	85.858999	63.88
935.7	85.833	63.866
935.6	85.801	63.837999
935.5	85.819	63.836
935.4	85.875999	63.815
935.3	85.86	63.797
935.2	85.887999	63.797
935.1	85.855	63.781
935	85.784	63.806
934.9	85.866	63.767
934.8	85.826	63.810999
934.7	85.807999	63.781
934.6	85.869	63.739999
934.5	85.86	63.727
934.4	85.802	63.73
934.3	85.845	63.719
934.2	85.822	63.73
934.1	85.853	63.723
934	85.857	63.741
933.9	85.812	63.729
933.8	85.789	63.709
933.7	85.83	63.709
933.6	85.81	63.692
933.5	85.812	63.666999
933.4	85.792999	63.654999
933.3	85.809	63.646
933.2	85.826	63.645
933.1	85.827	63.636
933	85.851999	63.621
932.9	85.843999	63.597
932.8	85.861	63.592
932.7	85.83	63.598
932.6	85.779	63.598
932.5	85.814	63.604
932.4	85.816	63.58
932.3	85.809	63.557
932.2	85.823	63.541
932.1	85.824	63.556
932	85.828	63.578
931.9	85.85	63.58
931.8	85.863999	63.565
931.7	85.858	63.542
931.6	85.827	63.532999
931.5	85.81	63.499
931.4	85.803	63.524
931.3	85.828999	63.504
931.2	85.818	63.478
931.1	85.799	63.504
931	85.773	63.48
930.9	85.799	63.456999
930.8	85.867	63.454
930.7	85.845	63.453
930.6	85.857	63.44
930.5	85.797	63.439
930.4	85.824999	63.447
930.3	85.843	63.427
930.2	85.788	63.442
930.1	85.777999	63.376
930	85.812999	63.381
929.9	85.730999	63.353
929.8	85.834999	63.321
929.7	85.807999	63.321
929.6	85.76	63.361
929.5	85.802	63.375
929.4	85.826	63.313
929.3	85.863999	63.329
929.2	85.812	63.302
929.1	85.838	63.324
929	85.818	63.312
928.9	85.866	63.273
928.8	85.826	63.266
928.7	85.814	63.268
928.6	85.828999	63.238
928.5	85.827	63.275
928.4	85.84	63.273
928.3	85.855	63.23
928.2	85.819999	63.223
928.1	85.776	63.258
928	85.758	63.261
927.9	85.771	63.232
927.8	85.745	63.186
927.7	85.776	63.172
927.6	85.780999	63.193
927.5	85.78	63.197
927.4	85.777	63.185
927.3	85.822	63.151
927.2	85.824999	63.154999
927.1	85.77	63.145
927	85.783	63.154
926.9	85.8	63.145
926.8	85.791	63.102999
926.7	85.786	63.117
926.6	85.806	63.105
926.5	85.782	63.074
926.4	85.75	63.063
926.3	85.709999	63.075
926.2	85.735	63.092
926.1	85.795999	63.066999
926	85.784	63.062
925.9	85.79	63.096
925.8	85.802	63.078999
925.7	85.798	63.042
925.6	85.821	63.014
925.5	85.79	63.043
925.4	85.763	63.041
925.3	85.807	62.997
925.2	85.86	63.005999
925.1	85.815	63.005999
925	85.84	62.989
924.9	85.8	62.964
924.8	85.727	62.978
924.7	85.705	62.934
924.6	85.768	62.983999
924.5	85.773	62.922999
924.4	85.78	62.941
924.3	85.788	62.944999
924.2	85.799	62.928
924.1	85.77	62.886
924	85.788	62.913
923.9	85.765	62.94
923.8	85.780999	62.910999
923.7	85.821	62.9
923.6	85.746	62.898
923.5	85.774	62.879
923.4	85.753	62.861999
923.3	85.807	62.861999
923.2	85.797	62.827
923.1	85.765999	62.838
923	85.762	62.810999
922.9	85.786	62.81
922.8	85.755	62.799
922.7	85.741	62.79
922.6	85.75	62.799
922.5	85.782	62.785
922.4	85.767	62.791
922.3	85.780999	62.764
922.2	85.780999	62.757
922.1	85.777999	62.744
922	85.756	62.738
921.9	85.772	62.743
921.8	85.792	62.727
921.7	85.727	62.718
921.6	85.696	62.717
921.5	85.729999	62.693
921.4	85.75	62.704
921.3	85.753999	62.691
921.2	85.741999	62.666
921.1	85.712999	62.666999
921	85.775	62.673
920.9	85.782	62.648
920.8	85.774	62.639999
920.7	85.736	62.633
920.6	85.706999	62.639999
920.5	85.756	62.642
920.4	85.759	62.625
920.3	85.758	62.617
920.2	85.748	62.614
920.1	85.78	62.588999
920	85.74	62.586
919.9	85.776	62.566999
919.8	85.727	62.575
919.7	85.745	62.568
919.6	85.761	62.588
919.5	85.774	62.569
919.4	85.717	62.553
919.3	85.685	62.549
919.2	85.736	62.517999
919.1	85.715	62.526
919	85.749	62.501
918.9	85.762	62.52
918.8	85.744	62.541
918.7	85.744	62.474
918.6	85.751	62.491
918.5	85.757	62.462
918.4	85.701	62.425
918.3	85.764	62.473
918.2	85.703	62.463
918.1	85.736999	62.444999
918	85.753	62.439
917.9	85.76	62.415
917.8	85.762	62.435
917.7	85.729	62.43
917.6	85.753999	62.417
917.5	85.752	62.4
917.4	85.751	62.352
917.3	85.685	62.379
917.2	85.732	62.37
917.1	85.753	62.358999
917	85.726	62.342
916.9	85.709999	62.361999
916.8	85.768999	62.344
916.7	85.795999	62.341
916.6	85.762	62.322
916.5	85.723	62.333
916.4	85.709999	62.285
916.3	85.727	62.291
916.2	85.72	62.307
916.1	85.74	62.285
916	85.735	62.277
915.9	85.727	62.273
915.8	85.699	62.277
915.7	85.681	62.273999
915.6	85.678	62.26
915.5	85.72	62.248
915.4	85.724	62.235
915.3	85.685	62.218
915.2	85.697999	62.22
915.1	85.718	62.212
915	85.718999	62.185
914.9	85.751	62.207
914.8	85.696	62.202
914.7	85.696	62.177
914.6	85.726	62.151
914.5	85.732	62.146
914.4	85.723	62.128
914.3	85.747	62.127
914.2	85.75	62.145
914.1	85.75	62.143
914	85.748	62.100999
913.9	85.746	62.124
913.8	85.721999	62.111
913.7	85.702	62.090999
913.6	85.717	62.104
913.5	85.675	62.092
913.4	85.654	62.081
913.3	85.721999	62.055
913.2	85.747	62.057
913.1	85.721999	62.055
913	85.724999	62.056
912.9	85.673999	62.063
912.8	85.676	62.039999
912.7	85.684	62.014
912.6	85.706999	61.998
912.5	85.682999	61.958
912.4	85.669	61.966
912.3	85.718	61.99
912.2	85.757	61.986
912.1	85.729	61.939
912	85.668	61.928
911.9	85.672	61.947
911.8	85.652	61.944999
911.7	85.639	61.946
911.6	85.658	61.935
911.5	85.716	61.913
911.4	85.721	61.924
911.3	85.721	61.916
911.2	85.716	61.9
911.1	85.701	61.907
911	85.677	61.898
910.9	85.645	61.878
910.8	85.653	61.866
910.7	85.685	61.83
910.6	85.69	61.84
910.5	85.665	61.84
910.4	85.658999	61.845
910.3	85.693	61.844
910.2	85.677	61.843
910.1	85.638	61.838
910	85.638	61.818
909.9	85.679	61.807999
909.8	85.706	61.825
909.7	85.7	61.832
909.6	85.712999	61.807
909.5	85.677	61.795
909.4	85.669	61.773999
909.3	85.732	61.753
909.2	85.682999	61.728
909.1	85.639	61.73
909	85.629	61.697
908.9	85.664	61.705
908.8	85.689	61.694
908.7	85.645	61.71
908.6	85.642	61.684
908.5	85.687	61.684
908.4	85.673999	61.675
908.3	85.64	61.677
908.2	85.664	61.71
908.1	85.638	61.67
908	85.692	61.638
907.9	85.627	61.627
907.8	85.634	61.617
907.7	85.709	61.597
907.6	85.627	61.622
907.5	85.607	61.639
907.4	85.665	61.6
907.3	85.653	61.598
907.2	85.682	61.578
907.1	85.690999	61.582
907	85.627	61.588
906.9	85.681	61.578
906.8	85.673	61.566
906.7	85.639	61.559
906.6	85.68	61.541
906.5	85.636	61.529
906.4	85.646999	61.517
906.3	85.666	61.531
906.2	85.649	61.529
906.1	85.689	61.512
906	85.676	61.483
905.9	85.653	61.478
905.8	85.619	61.468
905.7	85.648	61.462
905.6	85.667	61.473
905.5	85.66	61.474
905.4	85.654	61.453
905.3	85.649	61.45
905.2	85.65	61.423
905.1	85.685999	61.417999
905	85.685999	61.404
904.9	85.645	61.401
904.8	85.638	61.403
904.7	85.656	61.375
904.6	85.631	61.376
904.5	85.645	61.386
904.4	85.614999	61.395999
904.3	85.614999	61.351
904.2	85.607999	61.33
904.1	85.607	61.334
904	85.624	61.348
903.9	85.596	61.316
903.8	85.583	61.284
903.7	85.580999	61.292
903.6	85.592	61.29
903.5	85.596	61.297999
903.4	85.565	61.297999
903.3	85.56	61.275
903.2	85.583	61.294
903.1	85.613	61.275
903	85.642	61.265
902.9	85.613	61.253
902.8	85.580999	61.271
902.7	85.607999	61.249
902.6	85.643999	61.223
902.5	85.592	61.215
902.4	85.643999	61.211
902.3	85.614	61.211
902.2	85.627	61.185999
902.1	85.560999	61.194
902	85.589	61.216
901.9	85.626	61.175999
901.8	85.596999	61.132
901.7	85.613	61.148
901.6	85.63	61.144
901.5	85.602999	61.122
901.4	85.67	61.157
901.3	85.563	61.127
901.2	85.587999	61.123
901.1	85.596	61.117999
901	85.584999	61.106
900.9	85.59	61.09
900.8	85.645	61.077
900.7	85.589	61.033
900.6	85.59	61.063999
900.5	85.533999	61.059
900.4	85.556	61.029999
900.3	85.567	60.994
900.2	85.613	61.023
900.1	85.626	61.019
900	85.619	61.033
899.9	85.598	61.02
899.8	85.618	61.007
899.7	85.626	60.996
899.6	85.614999	60.982
899.5	85.563	60.973
899.4	85.558	60.961
899.3	85.593	60.941
899.2	85.556	60.949
899.1	85.535	60.955
899	85.538	60.947
898.9	85.547	60.938
898.8	85.543	60.91
898.7	85.56	60.897
898.6	85.59	60.889
898.5	85.605	60.888
898.4	85.566	60.9
898.3	85.572999	60.855
898.2	85.536999	60.846
898.1	85.528	60.845
898	85.55	60.823
897.9	85.559	60.828
897.8	85.491	60.84
897.7	85.599	60.809
897.6	85.560999	60.821
897.5	85.584	60.807999
897.4	85.503	60.778
897.3	85.536	60.748
897.2	85.5	60.752
897.1	85.571	60.752
897	85.582	60.744
896.9	85.583	60.746999
896.8	85.515	60.768
896.7	85.566	60.742
896.6	85.529	60.729
896.5	85.579	60.696
896.4	85.589	60.684
896.3	85.546	60.7
896.2	85.468999	60.694
896.1	85.595	60.673999
896	85.509	60.648
895.9	85.547	60.644
895.8	85.44	60.636
895.7	85.515	60.63
895.6	85.572	60.599
895.5	85.57	60.624
895.4	85.521999	60.6
895.3	85.56	60.595
895.2	85.543	60.561
895.1	85.521999	60.551
895	85.484	60.558
894.9	85.551	60.529999
894.8	85.541	60.546
894.7	85.511	60.541999
894.6	85.527	60.536
894.5	85.535	60.509
894.4	85.501	60.483
894.3	85.524999	60.47
894.2	85.531	60.46
894.1	85.497999	60.457
894	85.509	60.47
893.9	85.533	60.443
893.8	85.518	60.433
893.7	85.508	60.429
893.6	85.508	60.428
893.5	85.508	60.416
893.4	85.519	60.396
893.3	85.54	60.358999
893.2	85.53	60.352
893.1	85.509999	60.366
893	85.5	60.362
892.9	85.503	60.342
892.8	85.53	60.343
892.7	85.55	60.339
892.6	85.521999	60.331
892.5	85.542	60.318
892.4	85.524	60.287
892.3	85.531	60.297
892.2	85.517	60.274
892.1	85.524999	60.261
892	85.545	60.244
891.9	85.521	60.24
891.8	85.548999	60.227
891.7	85.566	60.235
891.6	85.541	60.182
891.5	85.516	60.207
891.4	85.516	60.207
891.3	85.523	60.156
891.2	85.527	60.17
891.1	85.527	60.142
891	85.53	60.129
890.9	85.476	60.146999
890.8	85.479	60.152
890.7	85.563999	60.095
890.6	85.509999	60.114
890.5	85.536	60.072
890.4	85.411	60.063999
890.3	85.52	60.075999
890.2	85.497	60.056
890.1	85.521	60.068
890	85.492	60.045
889.9	85.492	60.033
889.8	85.516	60.012
889.7	85.509999	60.016
889.6	85.499	60.017
889.5	85.512	59.996
889.4	85.515	59.965999
889.3	85.543	59.934
889.2	85.497999	59.925
889.1	85.551	59.91
889	85.533999	59.907
888.9	85.527	59.872
888.8	85.508	59.886
888.7	85.521999	59.864
888.6	85.504	59.865
888.5	85.492	59.885
888.4	85.494	59.848
888.3	85.465999	59.838
888.2	85.471	59.814
888.1	85.492999	59.782
888	85.53	59.780999
887.9	85.508	59.782
887.8	85.45	59.778
887.7	85.47	59.770999
887.6	85.497999	59.763
887.5	85.497	59.749
887.4	85.503	59.709
887.3	85.491	59.713
887.2	85.515	59.714
887.1	85.473	59.689
887	85.488	59.642
886.9	85.484	59.646
886.8	85.489	59.658999
886.7	85.507	59.652
886.6	85.509	59.616
886.5	85.47	59.626
886.4	85.479	59.63
886.3	85.502	59.636
886.2	85.509	59.571
886.1	85.465	59.57
886	85.48	59.563
885.9	85.450999	59.541
885.8	85.497999	59.51
885.7	85.450999	59.514999
885.6	85.47	59.512
885.5	85.441	59.526999
885.4	85.524	59.459
885.3	85.422	59.48
885.2	85.433	59.45
885.1	85.453	59.428
885	85.452	59.429
884.9	85.44	59.401
884.8	85.456	59.39
884.7	85.438999	59.389
884.6	85.405	59.402
884.5	85.426	59.380999
884.4	85.48	59.380999
884.3	85.445	59.374
884.2	85.432	59.341999
884.1	85.425	59.35
884	85.452	59.296
883.9	85.414999	59.304
883.8	85.414999	59.280999
883.7	85.396	59.308
883.6	85.402	59.28
883.5	85.448	59.253
883.4	85.437	59.258999
883.3	85.452	59.268
883.2	85.411	59.25
883.1	85.383	59.223
883	85.378	59.215
882.9	85.39	59.228
882.8	85.387	59.215
882.7	85.389	59.221
882.6	85.414999	59.23
882.5	85.445	59.218
882.4	85.416	59.175
882.3	85.38	59.154
882.2	85.399999	59.165
882.1	85.417	59.157
882	85.417	59.162
881.9	85.435	59.141
881.8	85.393	59.133
881.7	85.399999	59.124
881.6	85.383	59.114
881.5	85.402	59.134
881.4	85.367999	59.114999
881.3	85.367	59.095
881.2	85.358999	59.083
881.1	85.39	59.103
881	85.378	59.063
880.9	85.38	59.048
880.8	85.387	59.065
880.7	85.396	59.075999
880.6	85.33	59.046
880.5	85.363	59.038
880.4	85.369	59.033
880.3	85.393	59.025
880.2	85.402	59.04
880.1	85.378	59.007
880	85.392	58.998
879.9	85.402999	58.967
879.8	85.38	58.991
879.7	85.365	59.001
879.6	85.404	59.014
879.5	85.397	58.974
879.4	85.351999	58.971
879.3	85.477999	58.998
879.2	85.331999	58.979
879.1	85.363	58.923
879	85.367	58.948
878.9	85.345	58.936
878.8	85.322	58.926
878.7	85.351	58.896
878.6	85.352999	58.914
878.5	85.38	58.921
878.4	85.38	58.907
878.3	85.443	58.882
878.2	85.432	58.855999
878.1	85.35	58.853
878	85.363	58.843
877.9	85.377	58.846
877.8	85.365	58.807
877.7	85.367999	58.803
877.6	85.387	58.814
877.5	85.418	58.808
877.4	85.431	58.78
877.3	85.438	58.769
877.2	85.373	58.758999
877.1	85.33	58.738
877	85.335	58.744
876.9	85.348	58.731999
876.8	85.37	58.728
876.7	85.346999	58.694
876.6	85.336999	58.68
876.5	85.338	58.672999
876.4	85.328	58.645
876.3	85.318	58.646
876.2	85.315	58.638
876.1	85.346999	58.627
876	85.348	58.628
875.9	85.339	58.631
875.8	85.355	58.618
875.7	85.348	58.59
875.6	85.323	58.575
875.5	85.338	58.562
875.4	85.287	58.545
875.3	85.288	58.564
875.2	85.331999	58.564
875.1	85.319999	58.541
875	85.358999	58.516
874.9	85.346999	58.479
874.8	85.34	58.506
874.7	85.292999	58.46
874.6	85.374	58.489
874.5	85.292999	58.484
874.4	85.336999	58.379
874.3	85.336	58.432
874.2	85.361	58.404999
874.1	85.313	58.407
874	85.36	58.406
873.9	85.334	58.388
873.8	85.312	58.381
873.7	85.316	58.335
873.6	85.333	58.335
873.5	85.352999	58.355999
873.4	85.352999	58.339
873.3	85.321	58.296
873.2	85.27	58.259
873.1	85.333	58.298
873	85.342	58.277
872.9	85.304999	58.253
872.8	85.297	58.233
872.7	85.292	58.246
872.6	85.321	58.24
872.5	85.324999	58.229
872.4	85.342	58.189
872.3	85.307	58.187
872.2	85.351999	58.19
872.1	85.297	58.152
872	85.268999	58.141
871.9	85.318	58.141
871.8	85.336999	58.117
871.7	85.312	58.129
871.6	85.297	58.115
871.5	85.285	58.091
871.4	85.273	58.101
871.3	85.309	58.086
871.2	85.279	58.074
871.1	85.262	58.062
871	85.304999	58.035
870.9	85.328	58.060999
870.8	85.295	58.043
870.7	85.309	57.997
870.6	85.323	57.991
870.5	85.255	57.967
870.4	85.265999	57.961
870.3	85.285	57.964
870.2	85.271	57.934
870.1	85.263	57.919
870	85.279	57.928999
869.9	85.322	57.887
869.8	85.299	57.916999
869.7	85.324999	57.904999
869.6	85.274	57.898
869.5	85.263	57.873
869.4	85.261	57.853
869.3	85.257	57.812
869.2	85.256	57.786
869.1	85.277	57.799
869	85.236	57.807
868.9	85.301	57.806
868.8	85.26	57.768
868.7	85.324999	57.758
868.6	85.349	57.772
868.5	85.299	57.717
868.4	85.298	57.711
868.3	85.249	57.68
868.2	85.233	57.706
868.1	85.302	57.705
868	85.357	57.664
867.9	85.246	57.647
867.8	85.233	57.692
867.7	85.27	57.655
867.6	85.24	57.626
867.5	85.201	57.609
867.4	85.202	57.604
867.3	85.233	57.583
867.2	85.261	57.56
867.1	85.242999	57.567
867	85.248	57.531
866.9	85.273	57.538
866.8	85.280999	57.521
866.7	85.258	57.499
866.6	85.233999	57.487
866.5	85.236	57.474
866.4	85.263	57.46
866.3	85.252	57.442
866.2	85.25	57.42
866.1	85.256	57.393
866	85.22	57.387999
865.9	85.227	57.377999
865.8	85.236999	57.377999
865.7	85.211	57.391
865.6	85.239	57.374
865.5	85.261	57.367999
865.4	85.233	57.345
865.3	85.212	57.314
865.2	85.196	57.304999
865.1	85.22	57.311
865	85.239	57.276
864.9	85.241	57.259
864.8	85.273	57.249
864.7	85.253	57.254
864.6	85.221999	57.267
864.5	85.251	57.255
864.4	85.19	57.245
864.3	85.241999	57.209
864.2	85.188	57.196
864.1	85.224999	57.167
864	85.199	57.156
863.9	85.190999	57.166
863.8	85.211	57.124
863.7	85.213	57.106
863.6	85.24	57.098
863.5	85.218	57.086
863.4	85.192	57.054
863.3	85.193	57.062
863.2	85.193	57.038999
863.1	85.216	57.053
863	85.194	57.014
862.9	85.217	56.999999
862.8	85.149	56.985
862.7	85.197	56.981
862.6	85.217	56.971
862.5	85.244	56.961
862.4	85.232	56.955
862.3	85.181	56.915
862.2	85.242999	56.904999
862.1	85.241	56.888
862	85.233999	56.894
861.9	85.187	56.879
861.8	85.149	56.84
861.7	85.173	56.836
861.6	85.241999	56.833
861.5	85.221999	56.818
861.4	85.17	56.798
861.3	85.179	56.786
861.2	85.205	56.772
861.1	85.204	56.759
861	85.172	56.767
860.9	85.155999	56.742
860.8	85.153	56.723
860.7	85.176	56.694
860.6	85.18	56.686
860.5	85.209	56.684
860.4	85.2	56.681
860.3	85.19	56.672
860.2	85.202	56.644
860.1	85.209999	56.633999
860	85.182999	56.627
859.9	85.16	56.588
859.8	85.136	56.577
859.7	85.141	56.562
859.6	85.135	56.553
859.5	85.172	56.531
859.4	85.2	56.521999
859.3	85.185	56.514
859.2	85.178	56.482
859.1	85.175	56.486999
859	85.143	56.483
858.9	85.149	56.453
858.8	85.137	56.433
858.7	85.167	56.437
858.6	85.158999	56.422
858.5	85.117	56.389999
858.4	85.13	56.386
858.3	85.153	56.352999
858.2	85.114	56.373
858.1	85.175	56.355999
858	85.119999	56.342
857.9	85.157	56.32
857.8	85.184	56.289
857.7	85.185999	56.267999
857.6	85.118	56.275
857.5	85.14	56.281
857.4	85.09	56.247
857.3	85.164	56.227
857.2	85.119999	56.227
857.1	85.163	56.211
857	85.122	56.18
856.9	85.143	56.161
856.8	85.137	56.157999
856.7	85.075999	56.16
856.6	85.09	56.137
856.5	85.065	56.092
856.4	85.124	56.076
856.3	85.126	56.096
856.2	85.125	56.072999
856.1	85.119	56.026
856	85.111999	56.04
855.9	85.170999	56.04
855.8	85.138	56.017
855.7	85.114999	55.986
855.6	85.124	55.957
855.5	85.092	55.953
855.4	85.082	55.942
855.3	85.121	55.916999
855.2	85.117	55.896
855.1	85.111999	55.893
855	85.129	55.901999
854.9	85.139	55.883
854.8	85.165	55.855
854.7	85.154	55.835
854.6	85.118	55.816
854.5	85.045999	55.814
854.4	85.005	55.803999
854.3	85.060999	55.785
854.2	85.101	55.773
854.1	85.075	55.755999
854	85.087	55.736
853.9	85.091	55.72
853.8	85.066	55.687
853.7	85.091	55.689
853.6	85.108999	55.682
853.5	85.075	55.676
853.4	85.063999	55.66
853.3	85.028	55.639
853.2	85.092	55.613
853.1	85.116	55.614
853	85.059	55.583
852.9	85.048	55.588
852.8	85.148	55.562
852.7	85.083	55.528
852.6	85.075	55.517
852.5	85.096	55.523
852.4	85.101	55.541
852.3	85.101	55.482
852.2	85.082	55.478
852.1	85.033999	55.457
852	85.082	55.491
851.9	85.105	55.423
851.8	85.084999	55.357
851.7	85.087	55.364999
851.6	85.108999	55.37
851.5	85.086	55.367999
851.4	85.086	55.33
851.3	85.07	55.316
851.2	85.099	55.298
851.1	85.122	55.269
851	85.141	55.294
850.9	85.113	55.265
850.8	85.077	55.233
850.7	85.072	55.218
850.6	85.051	55.211
850.5	85.032	55.183
850.4	85.047	55.157
850.3	85.086	55.157
850.2	85.063	55.171
850.1	85.043	55.138
850	85.057	55.092
849.9	85.016	55.116
849.8	85.047	55.12
849.7	85.036999	55.099
849.6	85.065	55.063
849.5	85.099999	55.052
849.4	85.054	55.041
849.3	85.043	55.03
849.2	85.058	55.017
849.1	85.036	54.98
849	85.041	54.961
848.9	85.051	54.934
848.8	85.03	54.912
848.7	85.019	54.931
848.6	85.063999	54.905
848.5	85.066	54.872
848.4	85.065	54.867999
848.3	85.06	54.856
848.2	85.024999	54.845
848.1	85.029	54.807
848	85.001	54.805
847.9	84.953999	54.816
847.8	84.980999	54.798
847.7	84.94	54.781
847.6	84.962	54.756
847.5	85.035	54.75
847.4	85.066	54.749
847.3	85.075	54.728
847.2	85.017	54.685
847.1	85.009	54.643
847	85.012	54.674
846.9	85.033999	54.635
846.8	85.016	54.601
846.7	84.991	54.605
846.6	85.016	54.625
846.5	85.045	54.542
846.4	85.023	54.58
846.3	85.045	54.553
846.2	85.001	54.526
846.1	85.003	54.489
846	84.958999	54.535
845.9	84.946999	54.482
845.8	85.018	54.489
845.7	85.063999	54.447
845.6	85.054	54.435999
845.5	84.992999	54.446
845.4	84.977	54.43
845.3	84.992	54.386
845.2	84.967	54.395
845.1	85.008	54.37
845	84.997	54.359
844.9	84.977	54.354
844.8	84.999	54.308
844.7	84.961	54.291
844.6	84.977999	54.289
844.5	85.017	54.267
844.4	84.989999	54.245
844.3	85.006	54.238
844.2	84.989	54.232
844.1	84.996	54.203
844	84.985999	54.179999
843.9	84.989	54.174
843.8	84.979	54.137
843.7	84.98	54.112
843.599999	85.018	54.11
843.5	85.006	54.11
843.4	85.003	54.085
843.3	85.015	54.074
843.2	85.008	54.072
843.099999	85.012	54.063
843	84.997999	54.047999
842.9	84.974999	54.037
842.8	84.941	53.992
842.7	84.976	53.981
842.599999	85.033	53.979
842.5	84.98	53.959999
842.4	85.008	53.931
842.3	84.944	53.937
842.2	84.988	53.927
842.099999	84.977	53.912
842	84.968999	53.889
841.9	84.973	53.889
841.8	84.974999	53.874
841.7	84.958	53.843
841.599999	84.938999	53.809
841.5	84.917	53.805
841.4	84.936	53.769
841.3	85.006	53.773
841.2	84.923	53.742
841.099999	84.965999	53.735
841	84.971	53.701
840.9	84.926999	53.695
840.8	84.931	53.696
840.7	84.96	53.701
840.599999	84.956	53.686
840.5	84.914999	53.667
840.4	84.902999	53.654
840.3	84.968999	53.616
840.2	84.964	53.596
840.099999	84.91	53.58
840	84.933	53.559
839.9	84.938999	53.551
839.8	84.961	53.520999
839.7	84.961	53.52
839.599999	84.952	53.513
839.5	84.965999	53.492
839.4	84.958	53.496999
839.3	84.965999	53.471999
839.2	84.919	53.458
839.099999	84.919	53.447
839	84.971	53.445
838.9	84.95	53.423
838.8	84.961	53.382
838.7	84.902999	53.38
838.599999	84.854	53.364
838.5	84.926999	53.349999
838.4	84.950999	53.325999
838.3	84.926	53.303999
838.2	84.933	53.286999
838.099999	84.934	53.273
838	84.937	53.264
837.9	84.929	53.256
837.8	84.905	53.237
837.7	84.901	53.217
837.599999	84.899999	53.19
837.5	84.882	53.197
837.4	84.905	53.177
837.3	84.938999	53.15
837.2	84.892	53.158
837.099999	84.894	53.125
837	84.911	53.111
836.9	84.883	53.112
836.8	84.921	53.089
836.7	84.925	53.071
836.599999	84.889	53.083
836.5	84.863	53.047
836.4	84.882	53.030999
836.3	84.926	53.041
836.2	84.92	53.004
836.099999	84.88	52.976
836	84.875999	52.955
835.9	84.962999	52.965
835.8	84.91	52.931
835.7	84.866	52.922
835.599999	84.89	52.884
835.5	84.828999	52.915
835.4	84.873	52.853
835.3	84.831999	52.871
835.2	84.906	52.837999
835.099999	84.885	52.825999
835	84.931	52.837
834.9	84.89	52.81
834.8	84.895	52.773
834.7	84.916	52.76
834.599999	84.877	52.759
834.5	84.869	52.776999
834.4	84.904	52.741
834.3	84.877	52.676
834.2	84.921	52.687
834.099999	84.926999	52.666999
834	84.882	52.671
833.9	84.889	52.675
833.8	84.852999	52.634
833.7	84.899999	52.617
833.599999	84.93	52.617999
833.5	84.904	52.601
833.4	84.893	52.587
833.3	84.916	52.58
833.2	84.873	52.547999
833.099999	84.828999	52.525
833	84.846	52.522
832.9	84.87	52.502
832.8	84.877	52.501
832.7	84.867	52.485
832.599999	84.848999	52.461
832.5	84.84	52.458
832.4	84.855	52.447999
832.3	84.835	52.414
832.2	84.842	52.389
832.099999	84.855999	52.393
832	84.887	52.364999
831.9	84.879	52.345
831.8	84.852999	52.349
831.7	84.848	52.343
831.599999	84.866	52.333
831.5	84.831999	52.300999
831.4	84.816	52.279
831.3	84.816999	52.28
831.2	84.839	52.281
831.099999	84.884	52.258
831	84.807999	52.231
830.9	84.838	52.215
830.8	84.858999	52.187
830.7	84.862	52.166999
830.599999	84.846	52.174
830.5	84.81	52.154
830.4	84.848999	52.145
830.3	84.814	52.139
830.2	84.855	52.086
830.099999	84.883	52.105999
830	84.867999	52.047
829.9	84.804	52.057
829.8	84.828	52.051
829.7	84.831	52.037
829.599999	84.749	51.995
829.5	84.836999	51.999
829.4	84.840999	51.954
829.3	84.806	51.976
829.2	84.846999	51.955
829.099999	84.804	51.922999
829	84.776	51.932999
828.9	84.821	51.92
828.8	84.843999	51.881
828.7	84.843	51.878
828.599999	84.834	51.896
828.5	84.848999	51.846
828.4	84.839	51.818
828.3	84.848999	51.807
828.2	84.816	51.821
828.099999	84.795	51.824
828	84.799	51.792
827.9	84.809	51.778
827.8	84.768	51.773
827.7	84.772	51.764
827.599999	84.792999	51.739
827.5	84.843	51.719
827.4	84.836999	51.709
827.3	84.807	51.703
827.2	84.843999	51.694
827.099999	84.85	51.673
827	84.8	51.651
826.9	84.806	51.635
826.8	84.828	51.615999
826.7	84.771	51.598
826.599999	84.771	51.589
826.5	84.821	51.59
826.4	84.840999	51.571
826.3	84.843999	51.554999
826.2	84.821	51.544999
826.099999	84.795	51.532999
826	84.788	51.508
825.9	84.746	51.502
825.8	84.730999	51.487
825.7	84.782	51.489
825.599999	84.772	51.456
825.5	84.797	51.429
825.4	84.813	51.454
825.3	84.780999	51.436
825.2	84.831999	51.406
825.099999	84.813	51.401
825	84.845	51.401
824.9	84.796	51.332
824.8	84.786	51.349
824.7	84.773	51.358
824.599999	84.815	51.319
824.5	84.759	51.356
824.4	84.783	51.329
824.3	84.784	51.286
824.2	84.789999	51.285
824.099999	84.798	51.249
824	84.797	51.243
823.9	84.843999	51.239999
823.8	84.826	51.198
823.7	84.801	51.233
823.599999	84.741	51.197
823.5	84.732	51.164
823.4	84.791	51.154999
823.3	84.774	51.129
823.2	84.772	51.126
823.099999	84.769	51.11
823	84.795	51.108
822.9	84.771	51.108
822.8	84.797	51.081
822.7	84.807	51.082
822.599999	84.774	51.044
822.5	84.775	51.058
822.4	84.787	51.044999
822.3	84.733	51.008
822.2	84.721	50.99
822.099999	84.769	50.993
822	84.774	50.976
821.9	84.738	50.961
821.8	84.741999	50.961
821.7	84.765	50.939
821.599999	84.791	50.922
821.5	84.748	50.932
821.4	84.708	50.904
821.3	84.75	50.878
821.2	84.773	50.871999
821.099999	84.741	50.876
821	84.752	50.852
820.9	84.771	50.83
820.8	84.787	50.822999
820.7	84.773	50.818
820.599999	84.73	50.804
820.5	84.730999	50.775
820.4	84.727	50.769
820.3	84.772	50.754
820.2	84.73	50.739
820.099999	84.69	50.722
820	84.736999	50.718
819.9	84.791	50.723
819.8	84.788	50.686
819.7	84.787	50.671
819.599999	84.77	50.654999
819.5	84.77	50.651999
819.4	84.732	50.663
819.3	84.73	50.627999
819.2	84.753	50.596
819.099999	84.736	50.593999
819	84.761	50.605999
818.9	84.783	50.577
818.8	84.721	50.559
818.7	84.702	50.576
818.599999	84.748	50.559
818.5	84.730999	50.546
818.4	84.755	50.517
818.3	84.758	50.513
818.2	84.753	50.529
818.099999	84.694999	50.467
818	84.706	50.480999
817.9	84.744	50.465
817.8	84.726	50.431
817.7	84.727	50.444999
817.599999	84.704	50.454
817.5	84.679	50.425
817.4	84.714999	50.404
817.3	84.705	50.393
817.2	84.693	50.379
817.099999	84.739	50.345
817	84.726	50.322
816.9	84.726	50.322999
816.8	84.723	50.33
816.7	84.717	50.316
816.599999	84.735	50.295
816.5	84.726	50.27
816.4	84.694	50.271999
816.3	84.68	50.255
816.2	84.696	50.247
816.099999	84.711	50.257
816	84.716	50.254
815.9	84.727	50.245
815.8	84.717	50.224
815.7	84.687	50.21
815.599999	84.687	50.193
815.5	84.712	50.200999
815.4	84.682999	50.184
815.3	84.639	50.149
815.2	84.643999	50.143
815.099999	84.667999	50.116
815	84.677	50.105
814.9	84.692	50.099
814.8	84.684	50.096
814.7	84.664	50.092
814.599999	84.678	50.077
814.5	84.672	50.05
814.4	84.682	50.043
814.3	84.685999	50.043
814.2	84.721	50.01
814.099999	84.663	50.012
814	84.67	49.984
813.9	84.653	50.004
813.8	84.653	49.977
813.7	84.729	49.952
813.599999	84.699	49.977
813.5	84.658	49.952
813.4	84.757	49.928
813.3	84.678	49.932
813.2	84.655999	49.933
813.099999	84.724999	49.903
813	84.682	49.891
812.9	84.702	49.886
812.8	84.682999	49.878
812.7	84.664	49.844
812.599999	84.669	49.839
812.5	84.729	49.834
812.4	84.704	49.83
812.3	84.649	49.814
812.2	84.676	49.836
812.099999	84.699	49.815
812	84.642	49.805
811.9	84.636	49.784
811.8	84.655999	49.765
811.7	84.619999	49.742999
811.599999	84.662	49.751
811.5	84.7	49.713
811.4	84.701	49.738
811.3	84.676	49.726
811.2	84.691	49.685
811.099999	84.701	49.677
811	84.689	49.669999
810.9	84.658999	49.674
810.8	84.68	49.667
810.7	84.670999	49.631
810.599999	84.657	49.616
810.5	84.667999	49.625
810.4	84.658	49.626
810.3	84.655	49.62
810.2	84.631	49.601
810.099999	84.614	49.581
810	84.646	49.569
809.9	84.677	49.56
809.8	84.675	49.561
809.7	84.624	49.538
809.599999	84.638	49.526
809.5	84.629	49.517
809.4	84.614999	49.526
809.3	84.646999	49.53
809.2	84.670999	49.503
809.099999	84.645	49.472
809	84.636	49.45
808.9	84.651	49.445
808.8	84.670999	49.436
808.7	84.638	49.438
808.599999	84.608999	49.434
808.5	84.639	49.443
808.4	84.643999	49.415
808.3	84.661	49.415
808.2	84.642	49.389
808.099999	84.639	49.386
808	84.655999	49.364
807.9	84.611999	49.373
807.8	84.627	49.368
807.7	84.670999	49.35
807.599999	84.689	49.361
807.5	84.688	49.343
807.4	84.639	49.347
807.3	84.66	49.283
807.2	84.679	49.266
807.099999	84.638	49.272
807	84.67	49.277
806.9	84.653	49.273
806.8	84.687	49.283
806.7	84.68	49.245
806.599999	84.637	49.231
806.5	84.614	49.212
806.4	84.599999	49.218
806.3	84.57	49.219
806.2	84.611999	49.208
806.099999	84.648	49.198
806	84.648	49.18
805.9	84.614999	49.181
805.8	84.61	49.183
805.7	84.611999	49.175
805.599999	84.622	49.156
805.5	84.635	49.132
805.4	84.652	49.113
805.3	84.634	49.099
805.2	84.629	49.109
805.099999	84.614999	49.093
805	84.608999	49.069
804.9	84.628	49.075
804.8	84.633	49.068
804.7	84.628	49.068
804.599999	84.625	49.06
804.5	84.631	49.05
804.4	84.623	49.041
804.3	84.608999	49.027
804.2	84.629	49.009
804.099999	84.655	49.011
804	84.658999	49.005
803.9	84.639	48.97
803.8	84.583	48.956
803.7	84.587	48.947
803.599999	84.579	48.956
803.5	84.580999	48.951
803.4	84.599999	48.934
803.3	84.631999	48.901
803.2	84.635	48.916
803.099999	84.627	48.902
803	84.623	48.912
802.9	84.616	48.894
802.8	84.572999	48.889
802.7	84.578	48.867
802.599999	84.611	48.869
802.5	84.551	48.875
802.4	84.580999	48.863
802.3	84.64	48.855
802.2	84.614999	48.825
802.099999	84.583	48.823
802	84.575999	48.817
801.9	84.587999	48.856
801.8	84.559	48.801
801.7	84.594	48.772
801.599999	84.568	48.776
801.5	84.575999	48.768
801.4	84.565	48.751
801.3	84.577	48.713
801.2	84.575	48.75
801.099999	84.587	48.726
801	84.602999	48.729
800.9	84.604	48.686
800.8	84.58	48.715
800.7	84.586	48.713
800.599999	84.554	48.695
800.5	84.536	48.69
800.4	84.543	48.672
800.3	84.539	48.678
800.2	84.56	48.67
800.099999	84.571	48.664
800	84.569	48.64
799.9	84.592999	48.64
799.8	84.580999	48.616
799.7	84.575	48.62
799.599999	84.580999	48.612
799.5	84.639	48.607
799.4	84.633	48.605
799.3	84.554	48.581
799.2	84.541	48.574
799.099999	84.553	48.57
799	84.545	48.555
798.9	84.569	48.549
798.8	84.575999	48.553
798.7	84.589	48.547
798.599999	84.55	48.532
798.5	84.527	48.531
798.4	84.536	48.513
798.3	84.533999	48.514
798.2	84.587	48.501
798.099999	84.587	48.492
798	84.55	48.481
797.9	84.563	48.48
797.8	84.595	48.475
797.7	84.574	48.442
797.599999	84.557	48.428
797.5	84.563	48.43
797.4	84.572999	48.408
797.3	84.584	48.424
797.2	84.572	48.431
797.099999	84.476	48.407
797	84.532	48.362
796.9	84.532	48.379
796.8	84.554	48.373
796.7	84.635	48.377
796.599999	84.556	48.363
796.5	84.542	48.342
796.4	84.587999	48.345
796.3	84.533	48.318
796.2	84.543	48.316
796.099999	84.543	48.325
796	84.509	48.317
795.9	84.519	48.314
795.8	84.529	48.308
795.7	84.557	48.309
795.599999	84.560999	48.262
795.5	84.574	48.282
795.4	84.578	48.259
795.3	84.504	48.256
795.2	84.484	48.237
795.099999	84.521	48.249
795	84.511	48.252
794.9	84.523	48.228
794.8	84.538	48.22
794.7	84.519	48.201
794.599999	84.501	48.205
794.5	84.482	48.194
794.4	84.501	48.202
794.3	84.539	48.196
794.2	84.518	48.182
794.099999	84.528	48.175
794	84.518	48.162
793.9	84.495	48.154
793.8	84.506	48.146
793.7	84.507	48.135
793.599999	84.509	48.128
793.5	84.511	48.138
793.4	84.512	48.131
793.3	84.526	48.108
793.2	84.524	48.105
793.099999	84.507	48.101
793	84.499	48.095
792.9	84.492	48.085
792.8	84.496	48.067
792.7	84.506	48.076
792.599999	84.515	48.062
792.5	84.488	48.055
792.4	84.513	48.049
792.3	84.52	48.018
792.2	84.554	48.036
792.099999	84.545999	48.03
792	84.533999	48.003
791.9	84.495	48.003
791.8	84.511	47.996
791.7	84.513	47.997
791.599999	84.503	47.997
791.5	84.514	47.999
791.4	84.524	47.965
791.3	84.465999	47.99
791.2	84.524999	47.961
791.099999	84.523	47.947
791	84.512	47.952
790.9	84.449	47.969
790.8	84.499	47.955
790.7	84.477999	47.932
790.599999	84.502	47.929
790.5	84.496	47.92
790.4	84.469	47.907
790.3	84.47	47.898
790.2	84.529	47.89
790.099999	84.524999	47.86
790	84.531	47.889
789.9	84.503	47.869
789.8	84.477	47.877
789.7	84.505	47.86
789.599999	84.482	47.871
789.5	84.508	47.849
789.4	84.47	47.833
789.3	84.453999	47.829
789.2	84.447	47.824
789.099999	84.453	47.812
789	84.476	47.825
788.9	84.503	47.806
788.8	84.521999	47.794
788.7	84.509999	47.786
788.599999	84.509999	47.78
788.5	84.477999	47.781
788.4	84.474	47.786
788.3	84.489	47.769
788.2	84.473	47.746
788.099999	84.474	47.757
788	84.507	47.753
787.9	84.509	47.724
787.8	84.497999	47.718
787.7	84.501	47.724
787.599999	84.474	47.714
787.5	84.485	47.715999
787.4	84.465999	47.702
787.3	84.489999	47.703
787.2	84.512	47.693
787.099999	84.492	47.688
787	84.480999	47.688
786.9	84.438999	47.678
786.8	84.474	47.666
786.7	84.486	47.661
786.599999	84.44	47.651
786.5	84.436	47.657
786.4	84.497999	47.653
786.3	84.448	47.63
786.2	84.465999	47.644
786.099999	84.467	47.629
786	84.456	47.607
785.9	84.483	47.615
785.8	84.462999	47.591
785.7	84.45	47.616
785.599999	84.496	47.602
785.5	84.414999	47.593
785.4	84.46	47.585
785.3	84.47	47.595
785.2	84.479	47.604
785.099999	84.402999	47.57
785	84.492999	47.566
784.9	84.5	47.565
784.8	84.473	47.543
784.7	84.446	47.531
784.599999	84.45	47.534
784.5	84.413	47.557
784.4	84.441999	47.528
784.3	84.470999	47.521
784.2	84.458999	47.53
784.099999	84.452	47.51
784	84.486	47.487
783.9	84.452	47.507
783.8	84.458	47.504
783.7	84.464	47.501
783.599999	84.480999	47.492
783.5	84.497999	47.484
783.4	84.47	47.473
783.3	84.438999	47.471999
783.2	84.43	47.449
783.099999	84.441	47.448
783	84.450999	47.436
782.9	84.428	47.42
782.8	84.399999	47.423
782.7	84.445	47.427
782.599999	84.453	47.409
782.5	84.452	47.403
782.4	84.468	47.415
782.3	84.453999	47.413
782.2	84.45	47.396
782.099999	84.446	47.388
782	84.433	47.381
781.9	84.437	47.378
781.8	84.458999	47.374
781.7	84.465	47.375
781.599999	84.457	47.375
781.5	84.426999	47.349999
781.4	84.42	47.37
781.3	84.405	47.344
781.2	84.46	47.344
781.099999	84.447	47.326
781	84.43	47.324
780.9	84.396	47.319
780.8	84.437	47.296
780.7	84.474	47.305
780.599999	84.441999	47.297
780.5	84.43	47.321
780.4	84.441999	47.298
780.3	84.438	47.272
780.2	84.448	47.28
780.099999	84.443	47.261
780	84.467	47.274
779.9	84.446	47.268
779.8	84.44	47.288
779.7	84.414	47.267
779.599999	84.387	47.245
779.5	84.413	47.231
779.4	84.407	47.248
779.3	84.436	47.231
779.2	84.423	47.242
779.099999	84.408	47.233999
779	84.416	47.22
778.9	84.421	47.215
778.8	84.398	47.202
778.7	84.417	47.201
778.599999	84.425	47.191
778.5	84.387	47.186
778.4	84.395	47.182
778.3	84.392	47.186
778.2	84.453999	47.173
778.099999	84.426999	47.171
778	84.402	47.147
777.9	84.401	47.164
777.8	84.423999	47.158
777.7	84.422	47.159
777.599999	84.414	47.146
777.5	84.399	47.133
777.4	84.386	47.132
777.3	84.383	47.126
777.2	84.395	47.111
777.099999	84.392	47.117
777	84.413	47.096
776.9	84.438	47.084
776.8	84.421	47.099
776.7	84.418	47.09
776.599999	84.395	47.06
776.5	84.406	47.077
776.4	84.413	47.084
776.3	84.408	47.059
776.2	84.416	47.048
776.099999	84.435	47.042
776	84.414999	47.041
775.9	84.374	47.03
775.8	84.381	47.02
775.7	84.381	47.035
775.599999	84.373	47.025
775.5	84.399	47.014
775.4	84.375999	47.014
775.3	84.426999	47.015
775.2	84.406	46.987
775.099999	84.395	46.995
775	84.369	46.963
774.9	84.355999	46.968
774.8	84.396	46.966
774.7	84.377	46.96
774.599999	84.381	46.96
774.5	84.402	46.928
774.4	84.398	46.962
774.3	84.387	46.955
774.2	84.379	46.931
774.099999	84.367	46.935
774	84.362	46.906
773.9	84.395	46.88
773.8	84.367	46.885
773.7	84.387	46.912
773.599999	84.371	46.898
773.5	84.366	46.891
773.4	84.381	46.885
773.3	84.354	46.891
773.2	84.375999	46.85
773.099999	84.38	46.849
773	84.352999	46.857
772.9	84.333	46.861999
772.8	84.360999	46.834
772.7	84.402999	46.808
772.599999	84.360999	46.839
772.5	84.348999	46.842
772.4	84.383	46.823
772.3	84.367	46.823
772.2	84.364999	46.814
772.099999	84.395	46.8
772	84.397	46.806
771.9	84.374	46.802
771.8	84.340999	46.775
771.7	84.336	46.77
771.599999	84.369	46.767
771.5	84.374	46.758
771.4	84.379	46.748
771.3	84.367999	46.742
771.2	84.345	46.745
771.099999	84.354	46.741
771	84.36	46.739
770.9	84.379	46.727
770.8	84.375	46.717
770.7	84.33	46.698
770.599999	84.35	46.699
770.5	84.355999	46.706
770.4	84.357	46.702
770.3	84.381	46.663
770.2	84.378	46.654
770.099999	84.382	46.678999
770	84.352999	46.675
769.9	84.364999	46.659
769.8	84.335	46.657
769.7	84.306	46.661
769.599999	84.307	46.655
769.5	84.312	46.651
769.4	84.340999	46.644
769.3	84.379	46.639
769.2	84.352999	46.632
769.099999	84.352999	46.596
769	84.373	46.594
768.9	84.375	46.617999
768.8	84.377	46.62
768.7	84.35	46.573
768.599999	84.323	46.594
768.5	84.325	46.586
768.4	84.355999	46.582
768.3	84.348999	46.563
768.2	84.335	46.57
768.099999	84.321	46.559
768	84.313999	46.555
767.9	84.345	46.577
767.8	84.367999	46.550999
767.7	84.386	46.541
767.599999	84.340999	46.537
767.5	84.348999	46.539
767.4	84.338	46.542
767.3	84.360999	46.529
767.2	84.33	46.527
767.099999	84.351	46.525
767	84.313999	46.508
766.9	84.319	46.495
766.8	84.338	46.478
766.7	84.352999	46.472
766.599999	84.312	46.481
766.5	84.304	46.483
766.4	84.312	46.468
766.3	84.336	46.452
766.2	84.367999	46.453
766.099999	84.338	46.445
766	84.323	46.426
765.9	84.303	46.428999
765.8	84.285	46.437
765.7	84.296	46.435
765.599999	84.316	46.432
765.5	84.322	46.408
765.4	84.311	46.41
765.3	84.291	46.401
765.2	84.322	46.389
765.099999	84.304999	46.374
765	84.351	46.37
764.9	84.328	46.366
764.8	84.309	46.358
764.7	84.312	46.357
764.599999	84.316	46.357
764.5	84.328999	46.372
764.4	84.335	46.326
764.3	84.289999	46.325
764.2	84.291	46.332
764.099999	84.295	46.34
764	84.299	46.294999
763.9	84.328999	46.314
763.8	84.319999	46.288
763.7	84.323	46.282
763.599999	84.308	46.272
763.5	84.298	46.285
763.4	84.271	46.29
763.3	84.301999	46.271
763.2	84.292	46.258
763.099999	84.277999	46.248
763	84.226	46.263
762.9	84.313999	46.252
762.8	84.246	46.235
762.7	84.296	46.229
762.599999	84.269	46.229
762.5	84.25	46.215
762.4	84.301	46.192
762.3	84.324	46.203
762.2	84.292999	46.199
762.099999	84.321	46.196
762	84.307	46.201
761.9	84.282	46.178999
761.8	84.276	46.171
761.7	84.265	46.178
761.599999	84.291	46.157
761.5	84.294	46.151
761.4	84.253	46.136
761.3	84.236	46.13
761.2	84.296	46.132
761.099999	84.279	46.12
761	84.301999	46.119
760.9	84.295	46.111999
760.8	84.282	46.09
760.7	84.244	46.092
760.599999	84.274	46.1
760.5	84.308	46.077
760.4	84.306	46.06
760.3	84.318	46.06
760.2	84.304	46.05
760.099999	84.267	46.039
760	84.287	46.035
759.9	84.247	46.028
759.8	84.238	46.041
759.7	84.245	46.028
759.599999	84.25	46.02
759.5	84.233	46.019
759.4	84.202999	46.025
759.3	84.232	46.006
759.2	84.284	45.976
759.099999	84.267	45.988
759	84.27	45.981
758.9	84.232	45.965
758.8	84.259	45.978
758.7	84.275	45.973
758.599999	84.226999	45.949
758.5	84.209999	45.948
758.4	84.239	45.922
758.3	84.248	45.916
758.2	84.251	45.927
758.099999	84.229	45.907
758	84.245	45.927
757.9	84.268	45.896
757.8	84.212	45.907
757.7	84.265999	45.886
757.599999	84.221999	45.881
757.5	84.228	45.866
757.4	84.252	45.862
757.3	84.253999	45.843
757.2	84.261	45.873
757.099999	84.285	45.864
757	84.212	45.834
756.9	84.247	45.82
756.8	84.167999	45.853
756.7	84.152	45.821
756.599999	84.157	45.805
756.5	84.182	45.805
756.4	84.214999	45.814
756.3	84.232	45.811
756.2	84.185	45.792
756.099999	84.173	45.787
756	84.193	45.789
755.9	84.205	45.791
755.8	84.209	45.782
755.7	84.229	45.778
755.599999	84.228	45.758
755.5	84.225	45.743
755.4	84.186	45.75
755.3	84.184	45.742
755.2	84.217	45.722
755.099999	84.223	45.719
755	84.22	45.7
754.9	84.202999	45.688
754.8	84.187	45.705
754.7	84.162	45.687
754.599999	84.172	45.671
754.5	84.188	45.671
754.4	84.197	45.673
754.3	84.209999	45.678
754.2	84.208	45.66
754.099999	84.187	45.645
754	84.173	45.652
753.9	84.206	45.644
753.8	84.246	45.638
753.7	84.228	45.642
753.599999	84.179	45.619
753.5	84.155	45.601
753.4	84.17	45.592
753.3	84.153	45.595
753.2	84.128	45.567
753.099999	84.155999	45.592
753	84.201	45.543
752.9	84.204	45.558
752.8	84.142	45.565
752.7	84.154	45.548
752.599999	84.172	45.542
752.5	84.205	45.537
752.4	84.158999	45.546
752.3	84.189	45.526
752.2	84.213	45.531
752.099999	84.161	45.505
752	84.194999	45.482
751.9	84.154	45.487
751.8	84.124	45.514
751.7	84.178	45.47
751.599999	84.119	45.451
751.5	84.163	45.469
751.4	84.155	45.469
751.3	84.162	45.449
751.2	84.186	45.433
751.099999	84.196	45.458
751	84.155999	45.428
750.9	84.166	45.447
750.8	84.157	45.419
750.7	84.175	45.409
750.599999	84.178	45.407
750.5	84.155	45.399
750.4	84.187	45.378
750.3	84.169	45.375
750.2	84.158	45.38
750.099999	84.17	45.355
750	84.149	45.359
749.9	84.136	45.358
749.8	84.124	45.349
749.7	84.143	45.334
749.599999	84.165	45.329
749.5	84.155999	45.315
749.4	84.134	45.319
749.3	84.111	45.312
749.2	84.108	45.302
749.099999	84.129	45.299
749	84.151	45.276
748.9	84.163	45.268
748.8	84.142	45.271
748.7	84.147	45.261
748.599999	84.146	45.242
748.5	84.178	45.238
748.4	84.192	45.239
748.3	84.153	45.223
748.2	84.133	45.214
748.099999	84.163	45.201
748	84.151	45.214
747.9	84.166	45.204
747.8	84.11	45.187
747.7	84.131	45.182
747.599999	84.155999	45.158
747.5	84.14	45.151
747.4	84.155	45.151
747.3	84.163	45.159
747.2	84.143999	45.158
747.099999	84.155	45.133
747	84.11	45.105
746.9	84.111	45.133
746.8	84.118	45.121
746.7	84.107	45.114
746.599999	84.084	45.074
746.5	84.116999	45.071
746.4	84.079	45.084
746.3	84.101	45.089
746.2	84.129	45.07
746.099999	84.096999	45.05
746	84.128	45.046
745.9	84.134	45.034
745.8	84.135	45.029
745.7	84.114999	45.032
745.599999	84.104	45.006
745.5	84.107	45.001
745.4	84.136	44.995
745.3	84.113	44.985
745.2	84.121	44.985
745.099999	84.106	44.967
745	84.102	44.952
744.9	84.087999	44.958
744.8	84.099999	44.952
744.7	84.087999	44.958
744.599999	84.089	44.935
744.5	84.104999	44.922
744.4	84.114	44.917
744.3	84.116	44.904
744.2	84.13	44.892
744.099999	84.131	44.896
744	84.092999	44.892
743.9	84.104	44.876
743.8	84.102	44.887
743.7	84.084999	44.878
743.599999	84.084999	44.874
743.5	84.089	44.862
743.4	84.072	44.848
743.3	84.092	44.847
743.2	84.114999	44.825
743.099999	84.116999	44.804
743	84.084999	44.799
742.9	84.089	44.801
742.8	84.067	44.787
742.7	84.054	44.773
742.599999	84.091	44.759
742.5	84.057	44.77
742.4	84.084	44.749
742.3	84.057	44.75
742.2	84.096	44.746
742.099999	84.089	44.734
742	84.078	44.71
741.9	84.095	44.689
741.8	84.09	44.706
741.7	84.079	44.701
741.599999	84.047	44.666
741.5	84.072999	44.694
741.4	84.122	44.685
741.3	84.089	44.668
741.2	84.077	44.65
741.099999	84.080999	44.645
741	84.059	44.638
740.9	84.036999	44.627
740.8	84.054	44.611
740.7	84.059	44.616
740.599999	84.063	44.607
740.5	84.043	44.594
740.4	84.048999	44.573
740.3	84.063	44.586
740.2	84.060999	44.588
740.099999	84.071	44.585
740	84.057999	44.562
739.9	84.075999	44.539
739.8	84.051	44.535
739.7	84.025	44.526
739.599999	84.045999	44.523
739.5	84.044	44.522
739.4	84.011	44.505
739.3	84.041	44.486
739.2	84.087999	44.485
739.099999	84.051	44.486
739	84.031	44.468
738.9	84.03	44.451
738.8	84.036999	44.444
738.7	84.041	44.443
738.599999	84.02	44.433
738.5	84.025	44.421
738.4	84.036999	44.425
738.3	84.062	44.41
738.2	84.067	44.386
738.099999	84.03	44.39
738	84.03	44.381
737.9	84.038	44.374
737.8	84.021	44.368
737.7	84.036	44.344
737.599999	84.059	44.336
737.5	84.055	44.324
737.4	84.048999	44.307
737.3	84.025	44.316
737.2	84.016	44.303
737.099999	84.001	44.288
737	84.045	44.293
736.9	84.048999	44.275
736.8	84.036	44.259
736.7	84.048999	44.258
736.599999	84.066	44.254
736.5	84.064	44.239
736.4	84.033	44.239
736.3	84.018	44.236
736.2	83.992999	44.203
736.099999	84.009	44.222
736	84.048999	44.189
735.9	83.994	44.186
735.8	84.059	44.171
735.7	84.002	44.157
735.599999	83.962999	44.168
735.5	84.009	44.148
735.4	84.009999	44.141
735.3	84.004	44.123
735.2	83.982999	44.125
735.099999	83.989999	44.113
735	84.029	44.086
734.9	84.021	44.1
734.8	84.02	44.087
734.7	83.974999	44.09
734.599999	83.974999	44.068
734.5	84.024	44.066
734.4	84.021999	44.021
734.3	84.011	44.029
734.2	84.009999	44.034
734.099999	83.986	43.996
734	84.048	43.992
733.9	84.021999	43.991
733.8	84.045	43.997
733.7	84.012	43.985
733.599999	84.013	43.955
733.5	84.044	43.95
733.4	84.031	43.949
733.3	84.009	43.926
733.2	84.003	43.922
733.099999	83.992999	43.902
733	84.003	43.884
732.9	84.012	43.895
732.8	83.996	43.892
732.7	83.988	43.876
732.599999	84.02	43.858
732.5	84.001	43.847
732.4	83.982	43.848
732.3	83.999	43.836
732.2	84.004	43.806
732.099999	83.982999	43.8
732	83.956	43.801
731.9	83.986	43.791999
731.8	83.989999	43.787
731.7	83.965999	43.768
731.599999	83.98	43.747
731.5	83.994	43.757
731.4	84.03	43.747
731.3	83.982999	43.746
731.2	83.986999	43.727
731.099999	83.945	43.707
731	83.935999	43.69
730.9	83.958999	43.694
730.8	83.989999	43.673
730.7	83.989999	43.663
730.599999	84.03	43.657
730.5	83.928	43.64
730.4	83.944	43.645
730.3	84	43.635
730.2	83.97	43.62
730.099999	83.997999	43.611
730	83.952	43.604
729.9	83.919999	43.588
729.8	83.999	43.563
729.7	83.93	43.543
729.599999	84.009	43.543
729.5	83.986999	43.545
729.4	83.967	43.525
729.3	84.003	43.518
729.2	83.961	43.51
729.099999	83.989	43.505
729	83.988	43.485
728.9	83.953	43.469
728.8	83.938999	43.46
728.7	83.950999	43.451
728.599999	83.934	43.454
728.5	83.943	43.425
728.4	83.933	43.419999
728.3	83.935	43.407
728.2	83.945	43.395
728.099999	83.922	43.384
728	83.945	43.358
727.9	83.989	43.356
727.8	83.964	43.362
727.7	83.932	43.339
727.599999	83.968	43.324
727.5	83.965999	43.327
727.4	83.949	43.312
727.3	83.913	43.297
727.2	83.908	43.288
727.099999	83.919	43.276
727	83.952	43.267
726.9	83.965999	43.252
726.8	83.923999	43.24
726.7	83.933	43.214
726.599999	83.928	43.221
726.5	83.932	43.215
726.4	83.947	43.198
726.3	83.953	43.175
726.2	83.938	43.162
726.099999	83.932	43.166
726	83.934	43.148
725.9	83.931	43.138
725.8	83.929	43.133
725.7	83.945	43.122
725.599999	83.909	43.107
725.5	83.91	43.098
725.4	83.884	43.088
725.3	83.945	43.071
725.2	83.955	43.053
725.099999	83.945	43.045
725	83.965	43.042
724.9	83.965	43.044
724.8	83.956	43.047999
724.7	83.91	43.004
724.599999	83.984	43
724.5	83.913	42.968
724.4	83.914999	42.969
724.3	83.892	42.972
724.2	83.919999	42.944
724.099999	83.931	42.943
724	83.931	42.917
723.9	83.925	42.886
723.8	83.867	42.914
723.7	83.945	42.891
723.599999	83.946	42.849
723.5	83.952	42.855
723.4	83.952	42.841
723.3	83.94	42.834
723.2	83.881	42.831
723.099999	83.898	42.817
723	83.879	42.8
722.9	83.935999	42.792
722.8	83.922	42.781
722.7	83.91	42.755
722.599999	83.893	42.75
722.5	83.926999	42.732
722.4	83.938	42.728
722.3	83.962	42.71
722.2	83.916	42.7
722.099999	83.923	42.689
722	83.916	42.675
721.9	83.911999	42.661
721.8	83.931	42.652
721.7	83.935	42.64
721.599999	83.909	42.627
721.5	83.928	42.625
721.4	83.946	42.614
721.3	83.941	42.603
721.2	83.94	42.605
721.099999	83.947	42.588
721	83.929	42.555
720.9	83.877	42.551
720.8	83.896	42.541
720.7	83.882	42.527
720.599999	83.884	42.519
720.5	83.862	42.511
720.4	83.848	42.482
720.3	83.87	42.475
720.2	83.901	42.456
720.099999	83.913	42.437
720	83.914	42.411
719.9	83.917	42.421
719.8	83.902	42.411
719.7	83.919	42.417
719.599999	83.88	42.371
719.5	83.872999	42.36
719.4	83.858999	42.37
719.3	83.858	42.352
719.2	83.886	42.329
719.099999	83.889	42.322
719	83.845	42.318
718.9	83.866	42.308
718.8	83.928	42.289
718.7	83.852999	42.299
718.599999	83.877	42.278
718.5	83.855999	42.248
718.4	83.824	42.26
718.3	83.884	42.225
718.2	83.895	42.206
718.099999	83.905	42.196
718	83.923999	42.175
717.9	83.899	42.18
717.8	83.879	42.166
717.7	83.860999	42.166
717.599999	83.858	42.139
717.5	83.869	42.129
717.4	83.881	42.115
717.3	83.852999	42.11
717.2	83.864	42.081
717.099999	83.838	42.079
717	83.827	42.072
716.9	83.838	42.065
716.8	83.85	42.053
716.7	83.857	42.024
716.599999	83.88	42.02
716.5	83.882	42.015
716.4	83.878	42.008
716.3	83.848999	41.988
716.2	83.84	41.973
716.099999	83.83	41.959
716	83.847	41.938
715.9	83.862	41.929
715.8	83.851	41.917
715.7	83.872999	41.896
715.599999	83.851	41.895
715.5	83.838	41.889
715.4	83.855	41.872
715.3	83.855999	41.86
715.2	83.84	41.837999
715.099999	83.852	41.842
715	83.845	41.832
714.9	83.819	41.819
714.8	83.833	41.807
714.7	83.823	41.778
714.599999	83.819999	41.778
714.5	83.801999	41.765
714.4	83.797	41.731
714.3	83.824	41.721
714.2	83.836	41.735
714.099999	83.836999	41.718
714	83.789	41.702
713.9	83.809	41.688
713.8	83.838	41.674
713.7	83.846	41.652
713.599999	83.799	41.665
713.5	83.795	41.633
713.4	83.825	41.632
713.3	83.804999	41.638
713.2	83.855	41.604
713.099999	83.806	41.587
713	83.813999	41.561
712.9	83.784	41.566
712.8	83.763	41.549
712.7	83.789999	41.533
712.599999	83.821	41.518
712.5	83.818	41.498
712.4	83.768	41.513
712.3	83.76	41.483
712.2	83.801	41.455
712.099999	83.781	41.449
712	83.782	41.45
711.9	83.781	41.439
711.8	83.777999	41.423
711.7	83.81	41.399
711.599999	83.796	41.411
711.5	83.791	41.398
711.4	83.764	41.398
711.3	83.77	41.39
711.2	83.816999	41.36
711.099999	83.836	41.346
711	83.816	41.339
710.9	83.788	41.324
710.8	83.78	41.301
710.7	83.765999	41.299
710.599999	83.795	41.295
710.5	83.813999	41.272
710.4	83.801	41.265
710.3	83.789999	41.26
710.2	83.784	41.26
710.099999	83.769	41.237
710	83.774	41.202
709.9	83.774	41.197
709.8	83.785	41.19
709.7	83.796	41.18
709.599999	83.764	41.169
709.5	83.747	41.152
709.4	83.768	41.13
709.3	83.78	41.13
709.2	83.822	41.107
709.099999	83.799	41.085
709	83.804999	41.09
708.9	83.757	41.089
708.8	83.806	41.071
708.7	83.736	41.073
708.599999	83.76	41.051
708.5	83.75	41.037
708.4	83.752	41.028
708.3	83.73	41.014
708.2	83.705	41.009
708.099999	83.706999	40.989
708	83.735	40.986
707.9	83.765	40.983999
707.8	83.791	40.97
707.7	83.767	40.971999
707.599999	83.772	40.915
707.5	83.746	40.92
707.4	83.732	40.93
707.3	83.721	40.901
707.2	83.708	40.902
707.099999	83.753999	40.906
707	83.735	40.876
706.9	83.757	40.855
706.8	83.763	40.837
706.7	83.764	40.844
706.599999	83.751	40.823
706.5	83.7	40.808
706.4	83.738	40.807
706.3	83.723	40.804
706.2	83.730999	40.779
706.099999	83.751	40.77
706	83.741	40.755
705.9	83.736999	40.738
705.8	83.765	40.739
705.7	83.755	40.737
705.599999	83.726999	40.721
705.5	83.758	40.707
705.4	83.729	40.711
705.3	83.682999	40.699
705.2	83.685	40.685
705.099999	83.702	40.679
705	83.705	40.669
704.9	83.73	40.644
704.8	83.742999	40.623
704.7	83.725	40.607
704.599999	83.725	40.607
704.5	83.725	40.6
704.4	83.713	40.591
704.3	83.703	40.587
704.2	83.705	40.573
704.099999	83.724	40.567
704	83.699	40.550999
703.9	83.682999	40.538
703.8	83.725	40.523
703.7	83.738	40.513
703.599999	83.74	40.5
703.5	83.742	40.506
703.4	83.705	40.495
703.3	83.677	40.495
703.2	83.697	40.481
703.099999	83.702	40.467
703	83.657	40.457
702.9	83.694999	40.432
702.8	83.679999	40.426
702.7	83.678	40.404
702.599999	83.655999	40.41
702.5	83.732	40.402
702.4	83.686	40.402
702.3	83.684	40.398
702.2	83.712	40.381
702.099999	83.713	40.355
702	83.716	40.366
701.9	83.693	40.358
701.8	83.672	40.363
701.7	83.718999	40.335
701.599999	83.72	40.335
701.5	83.696	40.318
701.4	83.667	40.306
701.3	83.637	40.318
701.2	83.7	40.284
701.099999	83.686	40.266
701	83.702	40.277
700.9	83.674	40.272
700.8	83.665	40.262
700.7	83.684	40.265
700.599999	83.679	40.239999
700.5	83.655	40.222
700.4	83.645	40.212
700.3	83.664	40.203
700.2	83.674	40.191
700.099999	83.675	40.197
700	83.645	40.192
699.9	83.667	40.172999
699.8	83.675999	40.177
699.7	83.655999	40.164
699.599999	83.658	40.156
699.5	83.643999	40.16
699.4	83.647	40.14
699.3	83.649	40.131
699.2	83.649	40.134
699.099999	83.666	40.122
699	83.693	40.111999
698.9	83.689	40.101
698.8	83.664	40.09
698.7	83.67	40.081
698.599999	83.648	40.07
698.5	83.614	40.07
698.4	83.626	40.055
698.3	83.635	40.046
698.2	83.639	40.043
698.099999	83.633	40.034
698	83.655999	40.024
697.9	83.623	40.028
697.8	83.611	40.027
697.7	83.611	40.017
697.599999	83.655	40.004
697.5	83.643999	40.01
697.4	83.62	39.987
697.3	83.679	39.988
697.2	83.667	39.994
697.099999	83.642	39.977
697	83.613	39.963
696.9	83.616	39.961
696.8	83.614999	39.95
696.7	83.665	39.944
696.599999	83.64	39.942
696.5	83.669	39.932
696.4	83.637	39.933
696.3	83.667	39.916
696.2	83.689	39.915
696.099999	83.642	39.926
696	83.616999	39.897
695.9	83.62	39.887
695.8	83.619	39.882
695.7	83.611999	39.86
695.599999	83.604999	39.845
695.5	83.658	39.881
695.4	83.604999	39.871
695.3	83.579	39.867
695.2	83.614999	39.853
695.099999	83.61	39.845
695	83.606	39.841
694.9	83.631999	39.841
694.8	83.613	39.837
694.7	83.62	39.83
694.599999	83.631	39.822
694.5	83.616	39.823
694.4	83.596	39.831
694.3	83.584999	39.815
694.2	83.599999	39.803
694.099999	83.608	39.793
694	83.623	39.78
693.9	83.611	39.782
693.8	83.611	39.792
693.7	83.581999	39.787
693.599999	83.572	39.777
693.5	83.583	39.752
693.4	83.569999	39.744
693.3	83.556	39.757
693.2	83.569999	39.757
693.099999	83.581	39.755
693	83.563	39.741
692.9	83.536	39.728
692.8	83.560999	39.727
692.7	83.592999	39.738
692.599999	83.566	39.735
692.5	83.584	39.726
692.4	83.581	39.721
692.3	83.575999	39.708
692.2	83.572	39.703
692.099999	83.568	39.709
692	83.587	39.703
691.9	83.569999	39.697
691.8	83.566	39.689
691.7	83.589	39.696
691.599999	83.565	39.673
691.5	83.560999	39.689
691.4	83.584	39.672
691.3	83.604999	39.673
691.2	83.557999	39.654
691.099999	83.581	39.663
691	83.575	39.675
690.9	83.574	39.671
690.8	83.521999	39.644
690.7	83.519	39.646
690.599999	83.541	39.654
690.5	83.545999	39.65
690.4	83.542	39.643
690.3	83.555	39.648
690.2	83.539	39.635
690.099999	83.589	39.642
690	83.598	39.625
689.9	83.544	39.629
689.8	83.521	39.636
689.7	83.52	39.632
689.599999	83.515	39.629
689.5	83.511	39.623
689.4	83.533	39.616
689.3	83.575999	39.612
689.2	83.548999	39.606
689.099999	83.538	39.607
689	83.548	39.608
688.9	83.544	39.595
688.8	83.542	39.605
688.7	83.55	39.609
688.599999	83.551	39.598
688.5	83.535	39.597
688.4	83.529	39.599
688.3	83.524	39.594
688.2	83.535	39.593
688.099999	83.528	39.594
688	83.511	39.576
687.9	83.519	39.566
687.8	83.528	39.554
687.7	83.525	39.565
687.599999	83.508	39.577
687.5	83.543	39.58
687.4	83.548	39.583
687.3	83.501	39.573
687.2	83.497	39.576
687.099999	83.538	39.572
687	83.548999	39.557
686.9	83.504	39.581
686.8	83.465999	39.564
686.7	83.516	39.562
686.599999	83.507	39.579
686.5	83.538	39.557
686.4	83.542	39.562
686.3	83.519	39.558
686.2	83.485	39.55
686.099999	83.544	39.545
686	83.5	39.545
685.9	83.509	39.55
685.8	83.511	39.567
685.7	83.481	39.565
685.599999	83.476	39.575
685.5	83.519	39.569
685.4	83.472	39.553
685.3	83.508	39.545
685.2	83.470999	39.548
685.099999	83.496	39.546
685	83.517	39.525
684.9	83.557	39.54
684.8	83.548999	39.535
684.7	83.509	39.53
684.599999	83.465999	39.56
684.5	83.506	39.58
684.4	83.5	39.568
684.3	83.509999	39.548
684.2	83.506	39.546
684.099999	83.492	39.548
684	83.464	39.552
683.9	83.464	39.544
683.8	83.47	39.534
683.7	83.453999	39.554
683.599999	83.477999	39.547
683.5	83.46	39.53
683.4	83.452	39.526
683.3	83.473	39.528
683.2	83.458	39.519
683.099999	83.469	39.518
683	83.473	39.534
682.9	83.443	39.531
682.8	83.443	39.532
682.7	83.457	39.532
682.599999	83.46	39.524
682.5	83.452	39.525
682.4	83.438	39.537
682.3	83.45	39.53
682.2	83.482	39.531
682.099999	83.491	39.535
682	83.469	39.526
681.9	83.465	39.517
681.8	83.465999	39.52
681.7	83.474999	39.529
681.599999	83.461	39.534
681.5	83.431	39.536
681.4	83.431	39.523
681.3	83.431	39.535
681.2	83.438999	39.545
681.099999	83.453999	39.572
681	83.447999	39.562
680.9	83.421	39.528
680.8	83.435999	39.556
680.7	83.409	39.562
680.599999	83.399999	39.573
680.5	83.393	39.555
680.4	83.404	39.547
680.3	83.379	39.559
680.2	83.444	39.575
680.099999	83.402	39.56
680	83.416	39.565
679.9	83.442	39.536
679.8	83.42	39.576
679.7	83.453	39.566
679.599999	83.444	39.572
679.5	83.417	39.56
679.4	83.42	39.59
679.3	83.402	39.581
679.2	83.437	39.556
679.099999	83.443	39.555
679	83.402	39.565
678.9	83.399999	39.56
678.8	83.425	39.582
678.7	83.438	39.572
678.599999	83.444	39.57
678.5	83.414	39.582
678.4	83.382	39.587
678.3	83.455	39.586
678.2	83.452	39.589
678.099999	83.472	39.6
678	83.438999	39.593
677.9	83.41	39.606
677.8	83.396	39.608
677.7	83.426999	39.609
677.599999	83.433	39.605
677.5	83.45	39.599
677.4	83.431999	39.603
677.3	83.425	39.616
677.2	83.425	39.612
677.099999	83.431999	39.605
677	83.401	39.617
676.9	83.367999	39.611
676.8	83.392	39.617
676.7	83.42	39.615
676.599999	83.406	39.621
676.5	83.378	39.638
676.4	83.387999	39.642
676.3	83.409	39.634
676.2	83.409	39.648
676.099999	83.401	39.642
676	83.393	39.63
675.9	83.379	39.642
675.8	83.404	39.628
675.7	83.387999	39.644
675.599999	83.389	39.636
675.5	83.383	39.668
675.4	83.366	39.657
675.3	83.366	39.661
675.2	83.375	39.668
675.099999	83.371	39.672
675	83.416	39.678
674.9	83.377	39.667
674.8	83.351	39.67
674.7	83.411999	39.674
674.599999	83.386	39.667
674.5	83.399999	39.682
674.4	83.389	39.675
674.3	83.364	39.693
674.2	83.387999	39.7
674.099999	83.360999	39.714
674	83.358	39.688
673.9	83.363	39.711
673.8	83.35	39.712
673.7	83.327	39.709
673.599999	83.323	39.738
673.5	83.351	39.717
673.4	83.362	39.721
673.3	83.387999	39.717
673.2	83.386	39.73
673.099999	83.345	39.742
673	83.331999	39.746
672.9	83.355	39.756
672.8	83.374	39.75
672.7	83.384999	39.76
672.599999	83.359	39.753
672.5	83.355999	39.758
672.4	83.34	39.767
672.3	83.3	39.771
672.2	83.308	39.748
672.099999	83.325	39.735
672	83.342	39.747
671.9	83.340999	39.756
671.8	83.351	39.761
671.7	83.348	39.775
671.599999	83.355999	39.783
671.5	83.348999	39.779
671.4	83.331999	39.778
671.3	83.322	39.771
671.2	83.343999	39.771
671.099999	83.336	39.797
671	83.313	39.8
670.9	83.343	39.804
670.8	83.374	39.804
670.7	83.375999	39.804
670.599999	83.33	39.817
670.5	83.358	39.839
670.4	83.352999	39.834
670.3	83.296	39.828
670.2	83.313999	39.814
670.099999	83.333	39.823
670	83.316	39.831
669.9	83.304999	39.833
669.8	83.296	39.83
669.7	83.285	39.843
669.599999	83.277999	39.854
669.5	83.272	39.867
669.4	83.28	39.86
669.3	83.339	39.877
669.2	83.362	39.861
669.099999	83.307	39.885
669	83.308	39.851
668.9	83.289	39.877
668.8	83.282	39.869
668.7	83.272	39.884
668.599999	83.333	39.876
668.5	83.272	39.885
668.4	83.246	39.883
668.3	83.27	39.895
668.2	83.265	39.899
668.099999	83.294	39.898
668	83.295	39.9
667.9	83.274	39.907
667.8	83.285	39.925
667.7	83.303	39.927
667.599999	83.334	39.906
667.5	83.289999	39.911
667.4	83.337999	39.922999
667.3	83.31	39.937
667.2	83.273	39.946
667.099999	83.287	39.928
667	83.284	39.952
666.9	83.286	39.965
666.8	83.301999	39.96
666.7	83.306	39.971
666.599999	83.271	39.955
666.5	83.277999	39.959
666.4	83.276	39.968
666.3	83.285	39.97
666.2	83.272	39.971
666.099999	83.245	39.969
666	83.273	39.97
665.9	83.289	39.98
665.8	83.272	39.983
665.7	83.253999	39.986
665.599999	83.242999	39.988
665.5	83.245	39.988
665.4	83.223	40.002
665.3	83.235	39.998
665.2	83.267	40.006
665.099999	83.295	40.021
665	83.284	40.008
664.9	83.283	40.015
664.8	83.269	40.014
664.7	83.265	40.005
664.599999	83.249	40.004
664.5	83.291	40.042
664.4	83.255	40.041
664.3	83.218	40.026
664.2	83.253999	40.02
664.099999	83.253	40.037
664	83.230999	40.05
663.9	83.249	40.064
663.8	83.275	40.074
663.7	83.253	40.064
663.599999	83.262	40.059
663.5	83.250999	40.059
663.4	83.228	40.067
663.3	83.286	40.082
663.2	83.225	40.079
663.099999	83.2	40.085
663	83.241	40.097
662.9	83.229	40.097
662.8	83.22	40.089
662.7	83.203	40.111999
662.599999	83.214	40.111
662.5	83.217	40.113
662.4	83.216	40.108
662.3	83.203	40.106
662.2	83.228	40.114
662.099999	83.232	40.115
662	83.241	40.125
661.9	83.244	40.121
661.8	83.229	40.113
661.7	83.198	40.137
661.599999	83.206	40.149
661.5	83.216	40.148
661.4	83.214999	40.138
661.3	83.206	40.129
661.2	83.225	40.147
661.099999	83.218999	40.161
661	83.194	40.158
660.9	83.196	40.153
660.8	83.224	40.158
660.7	83.23	40.15
660.599999	83.216	40.167
660.5	83.208	40.182
660.4	83.206	40.172999
660.3	83.208	40.164
660.2	83.216	40.165
660.099999	83.214999	40.177
660	83.209	40.17
659.9	83.198	40.176
659.8	83.169	40.192
659.7	83.172	40.192
659.599999	83.209999	40.196
659.5	83.226999	40.214
659.4	83.191999	40.217
659.3	83.191999	40.208
659.2	83.191	40.201
659.099999	83.169	40.216
659	83.155999	40.214
658.9	83.187999	40.231
658.8	83.175	40.233999
658.7	83.179	40.228
658.599999	83.2	40.231
658.5	83.194999	40.233
658.4	83.202	40.237
658.3	83.196	40.256
658.2	83.182	40.259
658.099999	83.145	40.248
658	83.164	40.255
657.9	83.155999	40.266
657.8	83.182999	40.277
657.7	83.140999	40.269
657.599999	83.162	40.269
657.5	83.174	40.285
657.4	83.197	40.278
657.3	83.185	40.286
657.2	83.147	40.279
657.099999	83.176	40.266
657	83.208	40.274
656.9	83.169	40.305
656.8	83.157	40.297
656.7	83.138	40.272
656.599999	83.099	40.291
656.5	83.142	40.305
656.4	83.13	40.31
656.3	83.15	40.305
656.2	83.148	40.316
656.099999	83.136	40.314
656	83.159	40.333
655.9	83.167999	40.316
655.8	83.14	40.317
655.7	83.128	40.34
655.599999	83.153	40.338
655.5	83.16	40.335
655.4	83.127	40.341
655.3	83.133	40.345
655.2	83.167	40.334
655.099999	83.158	40.348
655	83.124	40.358
654.9	83.133	40.355999
654.8	83.148	40.351
654.7	83.138	40.359
654.599999	83.13	40.367999
654.5	83.118	40.367
654.4	83.121	40.354
654.3	83.124	40.363
654.2	83.128	40.37
654.099999	83.138	40.382
654	83.143999	40.395
653.9	83.153	40.39
653.8	83.136	40.383
653.7	83.121	40.397
653.599999	83.135	40.389
653.5	83.133	40.376
653.4	83.123	40.398
653.3	83.101	40.394
653.2	83.104	40.419
653.099999	83.116999	40.405
653	83.12	40.407
652.9	83.125	40.42
652.8	83.086	40.42
652.7	83.047	40.409
652.599999	83.115	40.439
652.5	83.143	40.425
652.4	83.134	40.419
652.3	83.072	40.42
652.2	83.062	40.426
652.099999	83.087	40.447
652	83.092999	40.415
651.9	83.101	40.434
651.8	83.122	40.438
651.7	83.086	40.447
651.599999	83.104	40.428
651.5	83.065	40.459
651.4	83.084999	40.467
651.3	83.081	40.461
651.2	83.143	40.475
651.099999	83.11	40.487
651	83.099999	40.477
650.9	83.045	40.492
650.8	83.063	40.5
650.7	83.093999	40.509
650.599999	83.096999	40.477999
650.5	83.099	40.477999
650.4	83.101	40.498
650.3	83.093999	40.514
650.2	83.042	40.503
650.099999	83.063	40.502
650	83.11	40.513
649.9	83.083	40.519
649.8	83.047	40.524
649.7	83.063	40.516
649.599999	83.055	40.504
649.5	83.053	40.515
649.4	83.052	40.523
649.3	83.057	40.529
649.2	83.072999	40.531
649.099999	83.052	40.528
649	83.028	40.52
648.9	83.037	40.525
648.8	83.057999	40.55
648.7	83.05	40.555
648.599999	83.048	40.548
648.5	83.057	40.532
648.4	83.041	40.543
648.3	83.05	40.549
648.2	83.064	40.558
648.099999	83.019	40.548
648	83.096	40.557
647.9	83.095	40.564
647.8	83.072999	40.57
647.7	83.05	40.556
647.599999	83.009999	40.57
647.5	83.03	40.581
647.4	83.033999	40.589
647.3	83.04	40.579
647.2	83.019	40.579
647.099999	83.04	40.586
647	83.048	40.589
646.9	83.021	40.591
646.8	82.981	40.576
646.7	83.009999	40.565
646.599999	83	40.574
646.5	83.003	40.591
646.4	83.009	40.592
646.3	83.001	40.597
646.2	83.021	40.617999
646.099999	83.013	40.609
646	83.015	40.625
645.9	83.014	40.601
645.8	83.017	40.597
645.7	83.025	40.596
645.599999	83.028	40.62
645.5	83.023	40.62
645.4	83.021999	40.614
645.3	83.004	40.631
645.2	83.009	40.638
645.099999	83.02	40.643
645	83.025	40.641
644.9	83.023	40.636
644.8	82.998	40.642
644.7	82.989999	40.645
644.599999	83.009	40.652
644.5	83.012	40.637
644.4	83.012	40.636
644.3	83.016	40.65
644.2	82.998	40.647
644.099999	83.014	40.651
644	83.012	40.67
643.9	82.994	40.666999
643.8	83.001	40.666999
643.7	83.006	40.669
643.599999	83.008	40.666999
643.5	82.994	40.661
643.4	82.977	40.666
643.3	83.015	40.672
643.2	83.006999	40.683
643.099999	82.98	40.702
643	82.979	40.689
642.9	82.985	40.691
642.8	82.968	40.69
642.7	82.950999	40.677
642.599999	82.977	40.681
642.5	82.981	40.692
642.4	82.984	40.685
642.3	82.974999	40.704
642.2	82.957	40.69
642.099999	82.958	40.714
642	82.949	40.724
641.9	82.94	40.705
641.8	82.929	40.715
641.7	82.917	40.72
641.599999	82.964	40.731
641.5	82.946	40.715
641.4	82.98	40.735
641.3	83.001	40.714
641.2	82.974999	40.713
641.099999	82.974	40.72
641	82.958	40.733
640.9	82.961	40.727
640.8	82.982999	40.739999
640.7	82.942	40.754
640.599999	82.949	40.736
640.5	82.941	40.769
640.4	82.938999	40.758
640.3	82.931	40.761
640.2	82.989999	40.753
640.099999	82.977	40.771
640	82.91	40.759
639.9	82.926	40.761
639.8	82.950999	40.787
639.7	82.972	40.788
639.599999	82.970999	40.781
639.5	82.962999	40.769
639.4	82.954	40.786
639.3	82.958	40.801
639.2	82.961	40.781
639.099999	82.950999	40.782
639	82.935	40.782
638.9	82.933	40.797
638.8	82.950999	40.799
638.7	82.954	40.788
638.599999	82.954	40.787
638.5	82.937	40.791
638.4	82.919	40.807
638.3	82.901	40.823
638.2	82.915	40.816
638.099999	82.934	40.822
638	82.915	40.827
637.9	82.943	40.829
637.8	82.931999	40.832
637.7	82.907	40.84
637.599999	82.92	40.843
637.5	82.921	40.837
637.4	82.923999	40.848
637.3	82.918	40.844
637.2	82.919	40.846
637.099999	82.923	40.814
637	82.928	40.834
636.9	82.935	40.848
636.8	82.904	40.863
636.7	82.899999	40.853
636.599999	82.88	40.861999
636.5	82.915	40.861
636.4	82.887999	40.878
636.3	82.902	40.849999
636.2	82.895	40.873
636.099999	82.883	40.885
636	82.887999	40.874
635.9	82.881	40.846
635.8	82.958	40.86
635.7	82.877	40.903
635.599999	82.909	40.875
635.5	82.871	40.879
635.4	82.95	40.9
635.3	82.914	40.887
635.2	82.911	40.883
635.099999	82.874	40.889
635	82.848	40.910999
634.9	82.862	40.906
634.8	82.877	40.891
634.7	82.894	40.898
634.599999	82.896	40.918
634.5	82.913	40.916999
634.4	82.879	40.921
634.3	82.874	40.927
634.2	82.877	40.943
634.099999	82.891	40.928
634	82.902	40.931
633.9	82.886	40.923
633.8	82.864999	40.935
633.7	82.877	40.954
633.599999	82.893	40.957
633.5	82.852999	40.951
633.4	82.852999	40.955
633.3	82.854	40.946
633.2	82.848	40.942
633.099999	82.852999	40.937
633	82.851	40.945
632.9	82.847	40.942
632.8	82.848999	40.956
632.7	82.847	40.96
632.599999	82.858	40.971999
632.5	82.821	40.992
632.4	82.789	40.977
632.3	82.823	40.968
632.2	82.828999	40.977
632.099999	82.813	40.98
632	82.8	40.973
631.9	82.8	40.982
631.8	82.795	40.999
631.7	82.775	41.01
631.599999	82.813999	41.011
631.5	82.831999	41.009
631.4	82.835	41.019
631.3	82.821	41.007
631.2	82.783	40.992
631.099999	82.776	41.001
631	82.818	41.005
630.9	82.831999	41.028
630.8	82.76	41.014
630.7	82.777999	41.038
630.599999	82.83	41.038999
630.5	82.834	41.041
630.4	82.781	41.014
630.3	82.781	41.024
630.2	82.783	41.024
630.099999	82.793	41.05
630	82.823	41.014
629.9	82.728	41.026
629.8	82.774	41.061
629.7	82.803	41.04
629.599999	82.758	41.035
629.5	82.8	41.058
629.4	82.798	41.036
629.3	82.809999	41.057
629.2	82.796	41.053
629.099999	82.819	41.063
629	82.783	41.056
628.9	82.781	41.057
628.8	82.807	41.045
628.7	82.795	41.073
628.599999	82.758	41.089
628.5	82.777999	41.066
628.4	82.784	41.065
628.3	82.786	41.083
628.2	82.794	41.079
628.099999	82.782	41.091
628	82.774	41.099999
627.9	82.765	41.09
627.8	82.777	41.075
627.7	82.811	41.086
627.599999	82.779	41.099
627.5	82.754	41.101
627.4	82.798	41.098
627.3	82.797	41.105
627.2	82.762999	41.108
627.099999	82.746	41.104
627	82.757	41.11
626.9	82.759	41.121
626.8	82.705	41.138
626.7	82.718	41.126
626.599999	82.777999	41.123
626.5	82.76	41.125
626.4	82.754	41.129
626.3	82.754	41.14
626.2	82.749	41.137
626.099999	82.721999	41.149
626	82.797	41.142
625.9	82.792	41.128
625.8	82.77	41.144
625.7	82.746	41.14
625.599999	82.78	41.148
625.5	82.772	41.173
625.4	82.736	41.160999
625.3	82.744	41.174
625.2	82.746	41.159
625.099999	82.753	41.171
625	82.753	41.195
624.9	82.717	41.186
624.8	82.736	41.165
624.7	82.762999	41.206
624.599999	82.742	41.183
624.5	82.769	41.184
624.4	82.703	41.177
624.3	82.735	41.202
624.2	82.703	41.201
624.099999	82.758	41.176
624	82.730999	41.182
623.9	82.714	41.195
623.8	82.667	41.195
623.7	82.75	41.201
623.599999	82.75	41.202
623.5	82.747	41.208
623.4	82.714	41.219
623.3	82.738	41.224
623.2	82.762999	41.219
623.099999	82.72	41.209
623	82.744	41.221
622.9	82.733999	41.233
622.8	82.703	41.218
622.7	82.709	41.221999
622.599999	82.726999	41.251
622.5	82.703999	41.241
622.4	82.697	41.237
622.3	82.691999	41.229
622.2	82.702	41.238
622.099999	82.687999	41.246
622	82.687	41.246
621.9	82.687999	41.257
621.8	82.699999	41.252
621.7	82.689	41.25
621.599999	82.684	41.256
621.5	82.686	41.261
621.4	82.693	41.267
621.3	82.703999	41.263
621.2	82.691	41.262
621.099999	82.645	41.273
621	82.607	41.289
620.9	82.655999	41.28
620.8	82.673	41.266
620.7	82.666	41.26
620.599999	82.662	41.28
620.5	82.643	41.281
620.4	82.662	41.278
620.3	82.679999	41.293
620.2	82.684	41.313
620.099999	82.675	41.295
620	82.649	41.291
619.9	82.658	41.282
619.8	82.714	41.303
619.7	82.713	41.294
619.599999	82.677	41.311
619.5	82.663	41.32
619.4	82.636	41.293
619.3	82.599	41.3
619.2	82.649	41.312
619.099999	82.63	41.303
619	82.646	41.327
618.9	82.636	41.321
618.8	82.618	41.311
618.7	82.599999	41.332
618.599999	82.672	41.314
618.5	82.646	41.315
618.4	82.628999	41.333
618.3	82.581	41.337
618.2	82.65	41.328
618.099999	82.604999	41.343
618	82.625	41.328
617.9	82.676	41.324
617.8	82.674	41.341
617.7	82.65	41.337
617.599999	82.635	41.339
617.5	82.616	41.349
617.4	82.616999	41.356
617.3	82.621	41.341
617.2	82.639	41.353
617.099999	82.605999	41.353
617	82.601	41.349999
616.9	82.631	41.357
616.8	82.655	41.355
616.7	82.628	41.36
616.599999	82.637	41.357
616.5	82.615	41.361
616.4	82.596999	41.356
616.3	82.604999	41.363
616.2	82.63	41.369
616.099999	82.619	41.38
616	82.565	41.376
615.9	82.571	41.369
615.8	82.584	41.364
615.7	82.583	41.368
615.599999	82.584	41.378
615.5	82.595	41.383
615.4	82.603	41.38
615.3	82.624	41.384
615.2	82.616999	41.39
615.099999	82.608	41.388
615	82.639	41.386
614.9	82.616999	41.389
614.8	82.604	41.382
614.7	82.603	41.402
614.599999	82.608	41.41
614.5	82.608999	41.401
614.4	82.556	41.386
614.3	82.581	41.402
614.2	82.564	41.404999
614.099999	82.611999	41.402
614	82.586	41.409
613.9	82.631	41.404
613.8	82.637	41.411
613.7	82.584	41.417
613.599999	82.56	41.408
613.5	82.560999	41.422
613.4	82.55	41.414
613.3	82.567	41.416
613.2	82.608	41.42
613.099999	82.555	41.442
613	82.547	41.397
612.9	82.58	41.408
612.8	82.598	41.423
612.7	82.605999	41.415
612.599999	82.508	41.407
612.5	82.577	41.4
612.4	82.544	41.41
612.3	82.531	41.41
612.2	82.533	41.417
612.099999	82.537	41.424
612	82.587	41.412
611.9	82.589	41.403
611.8	82.533	41.414
611.7	82.557999	41.415
611.599999	82.554	41.418
611.5	82.556	41.422
611.4	82.576	41.425
611.3	82.548999	41.421
611.2	82.526	41.424
611.099999	82.565	41.419
611	82.544	41.425
610.9	82.539	41.429
610.8	82.541	41.441
610.7	82.535	41.446
610.599999	82.543	41.43
610.5	82.537	41.43
610.4	82.521999	41.433
610.3	82.504	41.426
610.2	82.509	41.424
610.099999	82.494	41.439
610	82.486	41.439
609.9	82.509999	41.434
609.8	82.532	41.431
609.7	82.489999	41.432
609.599999	82.497	41.427
609.5	82.523	41.424
609.4	82.547	41.425
609.3	82.514	41.432
609.2	82.553	41.425
609.099999	82.479	41.42
609	82.525	41.414
608.9	82.512	41.419
608.8	82.474	41.448
608.7	82.476	41.445
608.599999	82.506999	41.448
608.5	82.516	41.436
608.4	82.486999	41.447
608.3	82.539	41.432
608.2	82.492	41.422
608.099999	82.474	41.431
608	82.462	41.425
607.9	82.48	41.423
607.8	82.548999	41.439
607.7	82.521999	41.436
607.599999	82.536	41.428
607.5	82.481	41.441
607.4	82.426999	41.44
607.3	82.496	41.415
607.2	82.450999	41.44
607.099999	82.469	41.424
607	82.506999	41.435
606.9	82.503	41.441
606.8	82.482	41.45
606.7	82.486	41.462
606.599999	82.474999	41.436
606.5	82.504	41.444
606.4	82.517	41.445
606.3	82.479	41.446
606.2	82.464	41.436
606.099999	82.469	41.434
606	82.458	41.427
605.9	82.461	41.43
605.8	82.465	41.423
605.7	82.47	41.423
605.599999	82.48	41.437
605.5	82.462	41.429
605.4	82.455999	41.426
605.3	82.468	41.439
605.2	82.447999	41.442
605.099999	82.429	41.42
605	82.423999	41.424
604.9	82.438	41.441
604.8	82.422	41.439
604.7	82.415	41.432
604.599999	82.464	41.426
604.5	82.459	41.436
604.4	82.481	41.435
604.3	82.474	41.437
604.2	82.465	41.434
604.099999	82.442	41.431
604	82.408999	41.417
603.9	82.401	41.4
603.8	82.443999	41.421
603.7	82.453	41.404
603.599999	82.425	41.415
603.5	82.363	41.443
603.4	82.395	41.429
603.3	82.465	41.423
603.2	82.454	41.418
603.099999	82.411	41.415
603	82.405	41.415
602.9	82.42	41.403
602.8	82.422	41.413
602.7	82.386	41.402
602.599999	82.425	41.427
602.5	82.403	41.412
602.4	82.422	41.393
602.3	82.429	41.4
602.2	82.41	41.392
602.099999	82.401	41.391
602	82.415	41.389
601.9	82.374	41.388
601.8	82.393	41.404
601.7	82.417	41.386
601.599999	82.408999	41.416
601.5	82.418	41.419
601.4	82.386	41.407
601.3	82.375	41.381
601.2	82.389	41.396
601.099999	82.367	41.39
601	82.381	41.39
600.9	82.387	41.398
600.8	82.394	41.377
600.7	82.387	41.386
600.599999	82.389	41.396
600.5	82.401	41.386
600.4	82.413	41.394
600.3	82.402	41.38
600.2	82.393	41.369
600.099999	82.396	41.362
600	82.415	41.369
599.9	82.414	41.374
599.8	82.402	41.359
599.7	82.36	41.352
599.599999	82.333	41.365
599.5	82.327	41.36
599.4	82.369	41.361
599.3	82.408	41.355
599.2	82.377	41.358
599.099999	82.364	41.368
599	82.37	41.354
598.9	82.376	41.341
598.8	82.402	41.338
598.7	82.358	41.339
598.599999	82.36	41.345
598.5	82.383	41.347
598.4	82.355999	41.352
598.3	82.361999	41.346
598.2	82.394	41.362
598.099999	82.371	41.346
598	82.360999	41.331
597.9	82.36	41.332
597.8	82.394	41.338
597.7	82.38	41.33
597.599999	82.367	41.331
597.5	82.352	41.318
597.4	82.364999	41.314
597.3	82.376	41.33
597.2	82.349999	41.307
597.099999	82.349999	41.327
597	82.375	41.319
596.9	82.351	41.299
596.8	82.323	41.311
596.7	82.337999	41.308
596.599999	82.38	41.304
596.5	82.321999	41.276
596.4	82.307	41.302
596.3	82.313	41.294
596.2	82.31	41.263
596.099999	82.293	41.271
596	82.288	41.289
595.9	82.349	41.292
595.8	82.349999	41.271
595.7	82.354	41.293
595.599999	82.313999	41.294
595.5	82.319	41.261
595.4	82.301999	41.246
595.3	82.292	41.261
595.2	82.316999	41.265
595.099999	82.331	41.265
595	82.335	41.256
594.9	82.319	41.264
594.8	82.301	41.265
594.7	82.331	41.253
594.599999	82.354	41.248
594.5	82.304999	41.254
594.4	82.313999	41.255
594.3	82.327	41.248
594.2	82.323	41.246
594.099999	82.337999	41.243
594	82.346	41.235
593.9	82.288	41.233
593.8	82.262	41.237
593.7	82.303	41.237
593.599999	82.295	41.236
593.5	82.294	41.224
593.4	82.291	41.217
593.3	82.284	41.22
593.2	82.285	41.219
593.099999	82.285	41.208
593	82.277	41.206
592.9	82.292	41.217
592.8	82.269	41.214
592.7	82.288	41.203
592.599999	82.255	41.205
592.5	82.285	41.214
592.4	82.287	41.201
592.3	82.262	41.184
592.2	82.27	41.197
592.099999	82.273	41.194
592	82.259	41.2
591.9	82.28	41.179
591.8	82.211999	41.187
591.7	82.252	41.183
591.599999	82.287	41.171
591.5	82.274	41.185
591.4	82.230999	41.173
591.3	82.257	41.178
591.2	82.273	41.17
591.099999	82.271	41.18
591	82.242	41.155
590.9	82.289	41.16
590.8	82.283	41.162
590.7	82.279	41.137
590.599999	82.232	41.151
590.5	82.249	41.137
590.4	82.193	41.132
590.3	82.215999	41.134
590.2	82.277999	41.126
590.099999	82.256	41.13
590	82.250999	41.14
589.9	82.232	41.132
589.8	82.248	41.117
589.7	82.262999	41.113
589.599999	82.232	41.105999
589.5	82.191999	41.103
589.4	82.206	41.102
589.3	82.221999	41.103
589.2	82.236	41.109
589.099999	82.238999	41.111
589	82.238	41.099
588.9	82.202	41.097
588.8	82.22	41.099
588.7	82.23	41.102
588.599999	82.198	41.099999
588.5	82.211999	41.079
588.4	82.211999	41.079
588.3	82.24	41.085
588.2	82.254	41.06
588.099999	82.223	41.06
588	82.217	41.044
587.9	82.214	41.042
587.8	82.191	41.044
587.699999	82.217	41.052
587.6	82.227999	41.052
587.5	82.233	41.041
587.4	82.227999	41.045
587.3	82.186	41.034
587.199999	82.208	41.024
587.1	82.19	41.028
587	82.166	41.032999
586.9	82.175	41.044
586.8	82.186	41.029
586.699999	82.167	41.032
586.6	82.242	41.023
586.5	82.236	41.015
586.4	82.171	40.998
586.3	82.176	41.015
586.199999	82.187	40.992
586.1	82.199	41.001
586	82.187	40.988
585.9	82.188	40.995
585.8	82.163	40.988
585.699999	82.162	40.99
585.6	82.203	40.946
585.5	82.146	40.989
585.4	82.147	40.981
585.3	82.185	40.952
585.199999	82.146	40.976
585.1	82.167999	40.977999
585	82.136	40.97
584.9	82.185	40.941
584.8	82.154	40.941
584.699999	82.116999	40.948
584.6	82.142	40.954
584.5	82.157	40.953
584.4	82.172	40.952
584.3	82.193	40.958
584.199999	82.174	40.932
584.1	82.152999	40.915
584	82.152999	40.914
583.9	82.171	40.915
583.8	82.158	40.905
583.699999	82.116999	40.91
583.6	82.122	40.898
583.5	82.132	40.905
583.4	82.158	40.910999
583.3	82.159	40.916
583.199999	82.17	40.907
583.1	82.143999	40.897
583	82.116	40.893
582.9	82.137	40.894
582.8	82.128	40.898
582.699999	82.124	40.895
582.6	82.125	40.885
582.5	82.143999	40.889
582.4	82.139	40.882
582.3	82.099	40.868
582.199999	82.104999	40.868
582.1	82.142	40.864
582	82.14	40.853
581.9	82.143999	40.849999
581.8	82.142	40.855
581.699999	82.121	40.861999
581.6	82.125	40.836
581.5	82.116999	40.846
581.4	82.134	40.835
581.3	82.12	40.834
581.199999	82.134	40.821
581.1	82.131	40.825
581	82.116999	40.822
580.9	82.113	40.819
580.8	82.074	40.812
580.699999	82.069999	40.822
580.6	82.108999	40.822
580.5	82.072999	40.797
580.4	82.111999	40.793
580.3	82.123	40.78
580.199999	82.087	40.786
580.1	82.124	40.794999
580	82.123	40.781
579.9	82.081	40.793
579.8	82.087	40.782
579.699999	82.098	40.759
579.6	82.092	40.754
579.5	82.06	40.76
579.4	82.104	40.752
579.3	82.045999	40.744
579.199999	82.074	40.775
579.1	82.08	40.748
579	82.021	40.739999
578.9	82.069999	40.745
578.8	82.065999	40.748
578.699999	82.035	40.744
578.6	82.060999	40.757
578.5	82.043	40.727
578.4	82.029	40.727
578.3	82.063	40.732
578.199999	82.09	40.716
578.1	82.089	40.719
578	82.081	40.705
577.9	82.088	40.713
577.8	82.071	40.712
577.699999	82.04	40.706
577.6	82.026	40.689
577.5	82.016	40.688
577.4	82.024	40.7
577.3	82.057999	40.692
577.199999	82.069999	40.681
577.1	82.037	40.681
577	82.047	40.679
576.9	82.081	40.679
576.8	82.077	40.683
576.699999	82.059	40.677
576.6	82.063	40.663
576.5	82.035	40.662
576.4	82.072	40.647
576.3	82.06	40.645
576.199999	82.072	40.652
576.1	82.021999	40.644
576	82.03	40.65
575.9	82.068	40.64
575.8	82.069999	40.636
575.699999	82.038	40.632
575.6	82.051	40.633
575.5	82.021999	40.625
575.4	82.013	40.6
575.3	82.036	40.614
575.199999	82.017	40.623
575.1	82.029	40.611
575	82.039	40.611999
574.9	82.029	40.605999
574.8	82.004	40.589
574.699999	82.017	40.596
574.6	82.003	40.588
574.5	82.002	40.568
574.4	82.016	40.582
574.3	82.004	40.582
574.199999	81.967	40.572
574.1	82.001	40.574
574	81.991	40.582
573.9	81.994999	40.573
573.8	81.959	40.546
573.699999	81.974	40.56
573.6	81.994	40.549
573.5	82.018	40.549
573.4	82.008	40.532
573.3	82.011	40.544999
573.199999	81.981	40.528
573.1	81.982	40.54
573	81.959	40.517
572.9	81.981	40.527
572.8	81.981	40.514
572.699999	81.992	40.52
572.6	82.001	40.512
572.5	82.021	40.51
572.4	82.008	40.515
572.3	81.967	40.497
572.199999	81.958	40.483
572.1	81.977	40.489
572	81.989	40.491
571.9	81.977	40.489999
571.8	81.949	40.486
571.699999	81.97	40.488
571.6	81.985	40.469
571.5	81.994999	40.452
571.4	82.008	40.459
571.3	81.998	40.469
571.199999	81.942	40.458
571.1	81.91	40.45
571	81.932	40.45
570.9	81.947	40.439
570.8	81.943999	40.428999
570.699999	81.934	40.442
570.6	81.95	40.436
570.5	81.95	40.443
570.4	81.946	40.43
570.3	81.938	40.407
570.199999	81.889	40.41
570.1	81.901	40.433
570	81.929	40.4
569.9	81.926	40.418
569.8	81.955	40.425
569.699999	81.950999	40.425
569.6	81.94	40.397
569.5	81.952	40.395
569.4	81.945	40.4
569.3	81.943	40.392
569.199999	81.959	40.388
569.1	81.908	40.374
569	81.906	40.387
568.9	81.896999	40.386
568.8	81.950999	40.361
568.699999	81.898	40.376
568.6	81.884	40.34
568.5	81.899999	40.361999
568.4	81.918	40.347
568.3	81.927	40.367
568.199999	81.902	40.352
568.1	81.892	40.355
568	81.915	40.326
567.9	81.997	40.309
567.8	81.908	40.351
567.699999	81.905	40.348
567.6	81.884999	40.334
567.5	81.902	40.334
567.4	81.894	40.327
567.3	81.867999	40.33
567.199999	81.887	40.332
567.1	81.899	40.331
567	81.889	40.302
566.9	81.889	40.29
566.8	81.898	40.289
566.699999	81.922	40.300999
566.6	81.943999	40.279
566.5	81.907	40.273
566.4	81.888	40.266
566.3	81.877	40.262
566.199999	81.871	40.28
566.1	81.871	40.281
566	81.852999	40.279
565.9	81.833	40.274
565.8	81.84	40.257
565.699999	81.831	40.251
565.6	81.840999	40.256
565.5	81.858	40.259
565.4	81.867	40.247
565.3	81.864	40.25
565.199999	81.879	40.23
565.1	81.879	40.22
565	81.849	40.233
564.9	81.863	40.239999
564.8	81.894	40.216
564.699999	81.889	40.204
564.6	81.855	40.203
564.5	81.855999	40.212
564.4	81.805	40.233
564.3	81.807	40.221
564.199999	81.852999	40.204
564.1	81.827	40.219
564	81.789999	40.191
563.9	81.825	40.193
563.8	81.843	40.197
563.699999	81.843	40.193
563.6	81.857	40.166
563.5	81.861999	40.178999
563.4	81.845	40.184
563.3	81.804	40.172
563.199999	81.858	40.157
563.1	81.807	40.147
563	81.807	40.155
562.9	81.824	40.154
562.8	81.845	40.144
562.699999	81.835	40.134
562.6	81.836	40.114
562.5	81.839	40.126
562.4	81.82	40.106
562.3	81.832	40.122
562.199999	81.833	40.119
562.1	81.84	40.096
562	81.823	40.098
561.9	81.789	40.108
561.8	81.809	40.098
561.699999	81.801999	40.087
561.6	81.797	40.071
561.5	81.786999	40.083
561.4	81.792	40.088
561.3	81.808	40.081
561.199999	81.789999	40.06
561.1	81.785	40.057
561	81.746	40.066
560.9	81.795	40.066
560.8	81.819	40.059
560.699999	81.769	40.048
560.6	81.754	40.035
560.5	81.766	40.016
560.4	81.769	40.022
560.3	81.782	40.026
560.199999	81.777	40.014
560.1	81.747	40.001
560	81.738	39.993
559.9	81.761	39.999
559.8	81.737	39.995
559.699999	81.757	39.981
559.6	81.757	39.979
559.5	81.698	39.989999
559.4	81.741	39.978
559.3	81.726	39.957
559.199999	81.744	39.951
559.1	81.736	39.936
559	81.746	39.928999
558.9	81.759	39.937
558.8	81.766	39.945
558.699999	81.777999	39.928999
558.6	81.733999	39.92
558.5	81.715	39.979
558.4	81.761	39.968
558.3	81.735	39.966
558.199999	81.786999	39.96
558.1	81.774	39.958
558	81.736	39.928
557.9	81.741	39.924
557.8	81.741	39.927
557.699999	81.762999	39.931
557.6	81.765	39.928999
557.5	81.739999	39.908
557.4	81.741	39.901
557.3	81.730999	39.887
557.199999	81.73	39.882
557.1	81.736	39.88
557	81.715999	39.849
556.9	81.72	39.837
556.8	81.721	39.852
556.699999	81.737	39.838
556.6	81.721999	39.835
556.5	81.703	39.828
556.4	81.694999	39.821
556.3	81.72	39.813
556.199999	81.721999	39.805
556.1	81.699999	39.795
556	81.721	39.795
555.9	81.71	39.779
555.8	81.698	39.778
555.699999	81.726	39.758
555.6	81.721999	39.737
555.5	81.725	39.732
555.4	81.681	39.728
555.3	81.667	39.713
555.199999	81.688	39.712
555.1	81.718999	39.723
555	81.718999	39.707
554.9	81.701	39.701
554.8	81.678	39.689
554.699999	81.648	39.685
554.6	81.682999	39.669
554.5	81.703	39.656
554.4	81.688	39.661
554.3	81.682	39.645
554.199999	81.643	39.643
554.1	81.625	39.627
554	81.652999	39.594
553.9	81.686	39.609
553.8	81.667999	39.612
553.699999	81.646	39.615
553.6	81.603	39.598
553.5	81.608999	39.588
553.4	81.66	39.589
553.3	81.644	39.57
553.199999	81.647	39.559
553.1	81.667	39.54
553	81.632	39.532
552.9	81.675	39.532
552.8	81.611	39.528
552.699999	81.640999	39.523
552.6	81.599999	39.536
552.5	81.628	39.507
552.4	81.545999	39.501
552.3	81.614	39.502
552.199999	81.599	39.489999
552.1	81.583	39.488
552	81.589	39.476
551.9	81.588	39.486
551.8	81.613	39.491
551.699999	81.596999	39.486
551.6	81.581999	39.472
551.5	81.584	39.448
551.4	81.572	39.438
551.3	81.553	39.449
551.199999	81.568	39.434
551.1	81.595	39.427
551	81.555	39.433
550.9	81.549	39.412
550.8	81.598	39.419
550.699999	81.564	39.403
550.6	81.55	39.38
550.5	81.557	39.396
550.4	81.584999	39.395
550.3	81.575	39.393
550.199999	81.526	39.384
550.1	81.542	39.369
550	81.581	39.371
549.9	81.577999	39.381
549.8	81.527	39.381
549.699999	81.515	39.374
549.6	81.514	39.355
549.5	81.505	39.337
549.4	81.505	39.335
549.3	81.542	39.341
549.199999	81.542999	39.338
549.1	81.544	39.315
549	81.559	39.32
548.9	81.563	39.328
548.8	81.539	39.32
548.699999	81.551	39.328
548.6	81.549	39.328
548.5	81.54	39.33
548.4	81.516	39.327
548.3	81.530999	39.284
548.199999	81.544	39.287
548.1	81.499	39.3
548	81.528	39.291
547.9	81.537	39.285
547.8	81.532	39.282
547.699999	81.556	39.271
547.6	81.527	39.287
547.5	81.506999	39.28
547.4	81.53	39.26
547.3	81.504	39.255
547.199999	81.476	39.264
547.1	81.512	39.241
547	81.523	39.253
546.9	81.515	39.243
546.8	81.502	39.259
546.699999	81.477	39.247
546.6	81.549	39.237
546.5	81.497	39.241
546.4	81.494	39.226
546.3	81.508	39.219
546.199999	81.464	39.224
546.1	81.473	39.213
546	81.503	39.202
545.9	81.464	39.188
545.8	81.489	39.201
545.699999	81.477	39.176
545.6	81.466	39.202
545.5	81.449	39.204
545.4	81.465	39.199
545.3	81.486	39.184
545.199999	81.493	39.182
545.1	81.467999	39.164
545	81.503	39.153
544.9	81.477999	39.136
544.8	81.452	39.145
544.699999	81.467	39.14
544.6	81.428	39.124
544.5	81.434	39.139
544.4	81.469	39.142
544.3	81.457	39.122
544.199999	81.435999	39.12
544.1	81.441	39.112
544	81.431	39.105
543.9	81.443	39.094
543.8	81.450999	39.09
543.699999	81.420999	39.094
543.6	81.455	39.078
543.5	81.483	39.059
543.4	81.466	39.067
543.3	81.423	39.069
543.199999	81.408	39.05
543.1	81.411	39.05
543	81.444	39.044
542.9	81.432999	39.029
542.8	81.445	39.04
542.699999	81.452	39.031
542.6	81.449	39.037
542.5	81.434	39.011
542.4	81.444	38.996
542.3	81.435	38.993
542.199999	81.416	38.983
542.1	81.417	38.974
542	81.396	38.984
541.9	81.438	38.975
541.8	81.445	38.951
541.699999	81.452	38.951
541.6	81.437	38.958
541.5	81.43	38.94
541.4	81.425	38.936
541.3	81.423	38.927
541.199999	81.369	38.926
541.1	81.43	38.918
541	81.411	38.892
540.9	81.39	38.895
540.8	81.387	38.901
540.699999	81.402	38.881
540.6	81.438999	38.882
540.5	81.415	38.862
540.4	81.384	38.857
540.3	81.413	38.853
540.199999	81.423999	38.838
540.1	81.406	38.845
540	81.379	38.823
539.9	81.383	38.829
539.8	81.381	38.816
539.699999	81.384	38.797
539.6	81.371	38.794
539.5	81.379	38.789
539.4	81.372	38.797
539.3	81.355999	38.789
539.199999	81.364999	38.767
539.1	81.386	38.767
539	81.369	38.759
538.9	81.367999	38.734
538.8	81.399	38.722
538.699999	81.358	38.724
538.6	81.355	38.729
538.5	81.357	38.726
538.4	81.333	38.712
538.3	81.348	38.702
538.199999	81.339	38.702
538.1	81.337	38.675
538	81.376	38.661
537.9	81.377	38.663
537.8	81.367999	38.651
537.699999	81.324	38.657
537.6	81.311	38.647
537.5	81.316	38.641
537.4	81.347	38.631
537.3	81.351	38.626
537.199999	81.339	38.618
537.1	81.316	38.621
537	81.292	38.606
536.9	81.277999	38.6
536.8	81.323	38.605
536.699999	81.316	38.576
536.6	81.328999	38.573
536.5	81.325999	38.569
536.4	81.301999	38.549
536.3	81.291	38.54
536.199999	81.318	38.543
536.1	81.292	38.501
536	81.3	38.518
535.9	81.344	38.507
535.8	81.337999	38.496
535.699999	81.27	38.477
535.6	81.295	38.482
535.5	81.281	38.496
535.4	81.308	38.468
535.3	81.313	38.446
535.199999	81.308	38.439
535.1	81.319	38.443
535	81.34	38.449
534.9	81.313	38.426
534.8	81.293	38.42
534.699999	81.295	38.41
534.6	81.318	38.403
534.5	81.349999	38.394
534.4	81.308	38.384
534.3	81.303	38.375
534.199999	81.248	38.371
534.1	81.259	38.362
534	81.27	38.368
533.9	81.261	38.356
533.8	81.254	38.345
533.699999	81.221	38.325
533.6	81.248	38.303
533.5	81.286999	38.295
533.4	81.279	38.295
533.3	81.252	38.3
533.199999	81.249	38.288
533.1	81.250999	38.266
533	81.262	38.263
532.9	81.261	38.264
532.8	81.267	38.255
532.699999	81.258	38.235
532.6	81.227999	38.239
532.5	81.223	38.228
532.4	81.248	38.199
532.3	81.282	38.207
532.199999	81.277999	38.194
532.1	81.226	38.179
532	81.206	38.18
531.9	81.203999	38.171
531.8	81.235	38.167
531.699999	81.249	38.154
531.6	81.277999	38.14
531.5	81.229	38.142
531.4	81.188	38.107
531.3	81.230999	38.116
531.199999	81.245	38.117
531.1	81.211999	38.105
531	81.241	38.079
530.9	81.19	38.075
530.8	81.198	38.072
530.699999	81.215	38.05
530.6	81.218	38.045
530.5	81.206999	38.06
530.4	81.21	38.026
530.3	81.145	38.04
530.199999	81.208	38.018
530.1	81.164999	38.008
530	81.152	38.007
529.9	81.197	37.992
529.8	81.199	37.959
529.699999	81.167999	37.977
529.6	81.194999	37.962
529.5	81.199	37.952
529.4	81.186	37.931
529.3	81.166	37.941
529.199999	81.161	37.917
529.1	81.201	37.921
529	81.226	37.918
528.9	81.227999	37.873
528.8	81.183	37.878
528.699999	81.196	37.87
528.6	81.173	37.86
528.5	81.158	37.879
528.4	81.196	37.856
528.3	81.19	37.845
528.199999	81.176999	37.846
528.1	81.144	37.825
528	81.167999	37.826
527.9	81.19	37.803
527.8	81.159	37.797
527.699999	81.157	37.8
527.6	81.161	37.785999
527.5	81.179999	37.761
527.4	81.185	37.747
527.3	81.152	37.738
527.199999	81.128	37.726
527.1	81.172	37.724999
527	81.142	37.714
526.9	81.083	37.716
526.8	81.114	37.709
526.699999	81.136	37.704
526.6	81.145	37.684
526.5	81.13	37.676
526.4	81.14	37.663999
526.3	81.142	37.656
526.199999	81.122	37.66
526.1	81.171	37.662
526	81.136	37.64
525.9	81.098	37.613
525.8	81.096999	37.618
525.699999	81.098	37.606
525.6	81.105999	37.59
525.5	81.083	37.593
525.4	81.133	37.586
525.3	81.099	37.573
525.199999	81.096999	37.528
525.1	81.067	37.551
525	81.121	37.525
524.9	81.117999	37.528
524.8	81.084999	37.511
524.699999	81.127	37.499
524.6	81.119	37.498
524.5	81.099	37.482
524.4	81.062	37.472
524.3	81.107	37.458
524.199999	81.035	37.459
524.1	81.125	37.465
524	81.057	37.437
523.9	81.081999	37.381
523.8	81.092	37.405
523.699999	81.076	37.404
523.6	81.075	37.402
523.5	81.099	37.378
523.4	81.064	37.373
523.3	81.105999	37.358
523.199999	81.107	37.35
523.1	81.054	37.348
523	81.045999	37.352
522.9	81.006	37.343
522.8	81.030999	37.32
522.699999	81.088	37.308
522.6	81.067	37.291999
522.5	81.06	37.293
522.4	81.045999	37.291
522.3	81.044	37.282
522.199999	81.022	37.275
522.1	81.026	37.259
522	81.042999	37.24
521.9	81.036	37.228
521.8	81.01	37.215
521.699999	81.02	37.211
521.6	81.045	37.203
521.5	81.011	37.195
521.4	81	37.19
521.3	81.015	37.174
521.199999	81.014	37.158
521.1	80.999	37.156
521	80.97	37.138
520.9	81.014	37.135
520.8	81.017	37.113
520.699999	81.014	37.101
520.6	81.017	37.104
520.5	80.991	37.105
520.4	81.035	37.072
520.3	80.994999	37.057
520.199999	81.012	37.075
520.1	80.969	37.058
520	81.006999	37.047999
519.9	80.974999	37.038
519.8	80.954	37.026
519.699999	80.977	37.008
519.6	81.02	37
519.5	80.974999	37.001
519.4	80.954	36.985
519.3	80.998	36.97
519.199999	81.004	36.991
519.1	81.018999	36.982
519	80.962	36.946
518.9	80.985	36.938
518.8	80.988	36.924
518.699999	80.959	36.915
518.6	80.979999	36.913
518.5	80.97	36.903
518.4	80.942	36.896
518.3	80.959999	36.874
518.199999	80.935999	36.876
518.1	80.962	36.862
518	80.901	36.84
517.9	80.91	36.812
517.8	80.923999	36.825
517.699999	80.905	36.803999
517.6	80.932999	36.797999
517.5	80.965	36.791
517.4	80.935999	36.785
517.3	80.911999	36.782
517.199999	80.947	36.77
517.1	80.954	36.759
517	80.955	36.747
516.9	80.947	36.729
516.8	80.969	36.709
516.699999	80.965	36.719
516.6	80.903	36.705
516.5	80.9	36.701
516.4	80.935999	36.685
516.3	80.959	36.667
516.199999	80.925	36.662
516.1	80.895	36.653
516	80.926	36.657
515.9	80.89	36.663
515.8	80.899	36.652
515.699999	80.923999	36.623
515.6	80.959	36.607
515.5	80.937	36.603
515.4	80.896	36.588
515.3	80.894	36.578
515.199999	80.894	36.574
515.1	80.934	36.572
515	80.927	36.559
514.9	80.891	36.545
514.8	80.871	36.54
514.699999	80.891	36.529
514.6	80.920999	36.518
514.5	80.895	36.492999
514.4	80.878	36.496
514.3	80.843	36.486
514.199999	80.845999	36.474
514.1	80.851	36.448
514	80.867	36.447
513.9	80.879	36.442
513.8	80.866	36.42
513.699999	80.832	36.423
513.6	80.817	36.431
513.5	80.839	36.406
513.4	80.895	36.368
513.3	80.896	36.383
513.199999	80.864999	36.387
513.1	80.851	36.375
513	80.84	36.376
512.9	80.843	36.369
512.8	80.864999	36.341
512.699999	80.847	36.327
512.6	80.882	36.319
512.5	80.866	36.31
512.4	80.848	36.289
512.3	80.833999	36.297
512.199999	80.823	36.275
512.1	80.833999	36.266
512	80.852	36.279
511.9	80.824	36.282
511.8	80.832	36.263
511.699999	80.837	36.242999
511.6	80.833999	36.209
511.5	80.827	36.212
511.4	80.791	36.2
511.3	80.83	36.186
511.199999	80.843	36.183
511.1	80.861	36.182
511	80.852999	36.169
510.9	80.828	36.153
510.8	80.804	36.152
510.699999	80.815	36.136
510.6	80.8	36.123
510.5	80.774	36.128
510.4	80.803	36.105
510.3	80.810999	36.101
510.199999	80.786	36.084
510.1	80.784	36.071
510	80.804	36.071
509.9	80.819	36.061
509.8	80.81	36.034
509.699999	80.781	36.046
509.6	80.789999	36.04
509.5	80.767	36.028
509.4	80.761	36.004
509.3	80.766	35.998
509.199999	80.788	35.991
509.1	80.771	35.974
509	80.711	35.979
508.9	80.742999	35.962
508.8	80.789	35.941
508.699999	80.747999	35.937
508.6	80.729	35.921
508.5	80.714	35.929
508.4	80.737	35.942
508.3	80.7	35.925
508.199999	80.729	35.898
508.1	80.785	35.904
508	80.785	35.877
507.9	80.77	35.871
507.8	80.732	35.898
507.699999	80.745	35.85
507.6	80.77	35.845
507.5	80.768	35.841
507.4	80.725	35.827
507.3	80.765	35.818
507.199999	80.735	35.792
507.1	80.758	35.786
507	80.76	35.798
506.9	80.739	35.776
506.8	80.713	35.768
506.699999	80.733999	35.762
506.6	80.709	35.762
506.5	80.688	35.754
506.4	80.726	35.744
506.3	80.703999	35.726
506.199999	80.709	35.719
506.1	80.706	35.713
506	80.711999	35.702
505.9	80.721	35.674
505.8	80.686	35.668
505.699999	80.678	35.671
505.6	80.691999	35.657
505.5	80.711999	35.647
505.4	80.705	35.65
505.3	80.676	35.635
505.199999	80.661	35.617
505.1	80.672	35.603
505	80.691	35.597
504.9	80.679999	35.602
504.8	80.681	35.585
504.699999	80.681	35.572
504.6	80.676999	35.571
504.5	80.7	35.556
504.4	80.700999	35.553
504.3	80.652999	35.535
504.199999	80.645	35.516
504.1	80.685	35.509
504	80.698	35.517
503.9	80.646	35.504
503.8	80.657	35.503
503.699999	80.684	35.503
503.6	80.640999	35.477
503.5	80.596999	35.475
503.4	80.621	35.461
503.3	80.627	35.451
503.199999	80.674	35.45
503.1	80.623	35.406
503	80.644	35.417
502.9	80.584999	35.414
502.8	80.674	35.405
502.699999	80.662	35.42
502.6	80.579	35.389
502.5	80.605	35.376
502.4	80.639	35.38
502.3	80.636	35.365
502.199999	80.522	35.345
502.1	80.581	35.343999
502	80.66	35.347
501.9	80.652999	35.328
501.8	80.672	35.322
501.699999	80.61	35.322
501.6	80.617999	35.322
501.5	80.605999	35.299
501.4	80.586	35.3
501.3	80.566	35.288
501.199999	80.562	35.279
501.1	80.61	35.271
501	80.581	35.245
500.9	80.571	35.25
500.8	80.583	35.239
500.699999	80.562	35.219
500.6	80.535	35.21
500.5	80.576	35.214
500.4	80.576	35.207
500.3	80.586	35.196
500.199999	80.598	35.185
500.1	80.571	35.174
500	80.568	35.167
499.9	80.563	35.157
499.8	80.572999	35.153
499.699999	80.556	35.149
499.6	80.554999	35.148
499.5	80.574	35.133
499.4	80.562	35.128
499.3	80.537	35.113
499.199999	80.518999	35.107
499.1	80.526	35.096
499	80.542	35.099
498.9	80.517	35.099
498.8	80.571	35.091
498.699999	80.536	35.065
498.6	80.512	35.057
498.5	80.506	35.051
498.4	80.485	35.042
498.3	80.547	35.01
498.199999	80.544	35.015
498.1	80.608	35.027
498	80.575	35.021
497.9	80.514	35.01
497.8	80.518	34.995
497.699999	80.493	34.971
497.6	80.491999	34.996
497.5	80.502	34.976
497.4	80.516	34.948
497.3	80.584	34.97
497.199999	80.526	34.956
497.1	80.536	34.939
497	80.501	34.939
496.9	80.486	34.914
496.8	80.471	34.922
496.699999	80.503	34.926
496.6	80.469	34.885
496.5	80.481	34.889
496.4	80.496	34.908
496.3	80.486999	34.879
496.199999	80.482	34.865
496.1	80.497	34.844
496	80.420999	34.825
495.9	80.438	34.865
495.8	80.481	34.834
495.699999	80.524	34.836
495.6	80.491	34.822
495.5	80.498	34.832
495.4	80.489999	34.808
495.3	80.495	34.803
495.199999	80.459999	34.792
495.1	80.439	34.777
495	80.474	34.781
494.9	80.488	34.771
494.8	80.467	34.762
494.699999	80.467	34.753
494.6	80.453	34.744
494.5	80.439	34.736
494.4	80.449	34.733
494.3	80.45	34.726
494.199999	80.491	34.721999
494.1	80.479999	34.702
494	80.432999	34.689
493.9	80.437	34.7
493.8	80.437	34.698
493.699999	80.402	34.682
493.6	80.44	34.683
493.5	80.455	34.662
493.4	80.43	34.659
493.3	80.401	34.643
493.199999	80.416	34.638
493.1	80.416	34.63
493	80.447999	34.634
492.9	80.419	34.623
492.8	80.411	34.622
492.699999	80.423999	34.605999
492.6	80.429	34.591
492.5	80.408999	34.594
492.4	80.402	34.575
492.3	80.404	34.564
492.199999	80.373	34.571
492.1	80.388	34.552
492	80.354	34.559
491.9	80.321	34.538
491.8	80.361	34.551
491.699999	80.413	34.562
491.6	80.386	34.538999
491.5	80.339	34.504
491.4	80.335	34.51
491.3	80.386	34.52
491.199999	80.345999	34.498
491.1	80.369999	34.509
491	80.423	34.511
490.9	80.398	34.488
490.8	80.312	34.472
490.699999	80.38	34.475
490.6	80.344	34.452
490.5	80.334	34.428
490.4	80.332	34.416
490.3	80.351	34.433
490.199999	80.355	34.438
490.1	80.328	34.432
490	80.310999	34.428
489.9	80.33	34.416999
489.8	80.357	34.411
489.699999	80.401	34.402
489.6	80.375	34.404
489.5	80.383	34.401
489.4	80.369	34.39
489.3	80.355	34.388
489.199999	80.334	34.381
489.1	80.328999	34.365
489	80.336	34.365
488.9	80.361	34.363
488.8	80.331	34.357
488.699999	80.305	34.348
488.6	80.328999	34.332
488.5	80.318	34.322
488.4	80.262999	34.329
488.3	80.269	34.314
488.199999	80.301999	34.299
488.1	80.298	34.287
488	80.286	34.28
487.9	80.27	34.27
487.8	80.279	34.266
487.699999	80.294	34.283
487.6	80.298999	34.26
487.5	80.278	34.252
487.4	80.289	34.277
487.3	80.279	34.273
487.199999	80.247999	34.244
487.1	80.272	34.254
487	80.289	34.235
486.9	80.274	34.239
486.8	80.258	34.207
486.699999	80.266	34.193
486.6	80.244	34.193
486.5	80.256	34.204
486.4	80.269	34.206
486.3	80.321	34.203
486.199999	80.241	34.169
486.1	80.284	34.193
486	80.227	34.182
485.9	80.223	34.172
485.8	80.200999	34.187
485.699999	80.238	34.153
485.599999	80.239999	34.144
485.5	80.223999	34.128
485.4	80.276	34.139
485.3	80.222	34.128
485.199999	80.239999	34.113
485.099999	80.234	34.105999
485	80.214	34.114
484.9	80.209	34.121
484.8	80.215	34.111
484.699999	80.234	34.105999
484.599999	80.212999	34.084
484.5	80.197	34.096
484.4	80.217	34.092
484.3	80.241	34.072
484.199999	80.222	34.065
484.099999	80.237	34.081
484	80.215999	34.065
483.9	80.235999	34.052
483.8	80.257	34.06
483.699999	80.215999	34.055
483.599999	80.171	34.039
483.5	80.194	34.038
483.4	80.223	34.042
483.3	80.198	34.035
483.199999	80.182	34.024
483.099999	80.163	34.034
483	80.154	34.023
482.9	80.148	34.01
482.8	80.176999	34.003
482.699999	80.181	33.992
482.599999	80.115	33.989999
482.5	80.156	33.995
482.4	80.169	33.974
482.3	80.167999	33.962
482.199999	80.164999	33.983999
482.099999	80.174	33.985
482	80.137	33.969
481.9	80.176999	33.954
481.8	80.174	33.949
481.699999	80.132	33.955
481.599999	80.11	33.946
481.5	80.117999	33.957
481.4	80.135	33.951
481.3	80.075	33.95
481.199999	80.176999	33.914
481.099999	80.140999	33.934
481	80.13	33.922999
480.9	80.091	33.897
480.8	80.154	33.928999
480.699999	80.086	33.893
480.599999	80.108999	33.906
480.5	80.057999	33.91
480.4	80.113999	33.925
480.3	80.087	33.879
480.199999	80.081999	33.889
480.099999	80.069	33.887
480	80.057999	33.866
479.9	80.075	33.871
479.8	80.078999	33.895
479.699999	80.057	33.91
479.599999	80.045999	33.889
479.5	80.083	33.888
479.4	80.052	33.875
479.3	80.034	33.861
479.199999	80.018	33.835
479.099999	80.03	33.825
479	80.023	33.841
478.9	80.06	33.844
478.8	80.044	33.839
478.699999	80.065	33.83
478.599999	80.064	33.833
478.5	80.062	33.837
478.4	80.064	33.848
478.3	80.083	33.842
478.199999	80.075	33.819
478.099999	80.038	33.814
478	80.024	33.813
477.9	80.024	33.821
477.8	80.057999	33.827
477.699999	80.066999	33.806
477.599999	80.075	33.803
477.5	80.02	33.799
477.4	79.989	33.79
477.3	80.028	33.794
477.199999	80.078999	33.800999
477.099999	80.06	33.799
477	80.026	33.796
476.9	80.025	33.793
476.8	80.017	33.766
476.699999	79.991999	33.789
476.599999	79.977	33.784
476.5	80.015999	33.781
476.4	79.981	33.772
476.3	79.979999	33.767
476.199999	79.977	33.753
476.099999	79.942	33.764
476	80.021	33.766
475.9	79.979999	33.754
475.8	79.967	33.782
475.699999	80.002	33.767
475.599999	80.024	33.75
475.5	80.008	33.749
475.4	79.982	33.759
475.3	79.944999	33.756
475.199999	79.977	33.783
475.099999	79.991999	33.748
475	79.979	33.739
474.9	79.876	33.724
474.8	79.928999	33.75
474.699999	79.920999	33.73
474.599999	79.883	33.738
474.5	79.932999	33.735
474.4	79.981	33.736
474.3	79.979999	33.742
474.199999	79.952	33.739
474.099999	79.907	33.732
474	79.944999	33.704
473.9	80.033	33.733999
473.8	79.939	33.722
473.699999	79.941	33.722
473.599999	79.962999	33.722
473.5	79.901	33.728
473.4	79.881999	33.712
473.3	79.913	33.715
473.199999	79.925	33.714
473.099999	79.967999	33.716
473	79.974	33.712
472.9	79.932999	33.712
472.8	79.928999	33.714
472.699999	79.911	33.715
472.599999	79.92	33.717
472.5	79.946	33.723
472.4	79.938	33.719
472.3	79.893	33.712
472.199999	79.864999	33.718
472.099999	79.88	33.728
472	79.867	33.719
471.9	79.871	33.715
471.8	79.857	33.716
471.699999	79.84	33.725
471.599999	79.852999	33.716
471.5	79.849999	33.707
471.4	79.876	33.722
471.3	79.867	33.708
471.199999	79.869	33.709
471.099999	79.832	33.705
471	79.855	33.711
470.9	79.840999	33.733
470.8	79.847	33.737
470.699999	79.866	33.737
470.599999	79.88	33.746
470.5	79.847	33.7
470.4	79.849	33.733999
470.3	79.895	33.735
470.199999	79.912	33.724
470.099999	79.874	33.758
470	79.879	33.747
469.9	79.844	33.763
469.8	79.861999	33.741
469.699999	79.757	33.721
469.599999	79.821	33.722
469.5	79.851	33.715
469.4	79.825	33.759
469.3	79.786	33.735
469.199999	79.757	33.757
469.099999	79.786999	33.75
469	79.754	33.733
468.9	79.727	33.726
468.8	79.751	33.737
468.699999	79.798999	33.739
468.599999	79.816	33.748
468.5	79.794	33.767
468.4	79.771	33.746
468.3	79.831	33.755
468.199999	79.849999	33.761
468.099999	79.825	33.768
468	79.809	33.766
467.9	79.798	33.756
467.8	79.786	33.758
467.699999	79.783	33.755
467.599999	79.762999	33.761
467.5	79.733	33.767
467.4	79.752	33.783
467.3	79.789	33.772
467.199999	79.79	33.766
467.099999	79.766	33.773
467	79.747999	33.77
466.9	79.757	33.774
466.8	79.747	33.784
466.699999	79.729	33.78
466.599999	79.714	33.771
466.5	79.711	33.783
466.4	79.747	33.787
466.3	79.735999	33.782
466.199999	79.723999	33.769
466.099999	79.715999	33.769
466	79.694	33.796
465.9	79.7	33.791
465.8	79.676999	33.821
465.699999	79.69	33.831
465.599999	79.696	33.807
465.5	79.694	33.814
465.4	79.714	33.812
465.3	79.684999	33.819
465.199999	79.752	33.818
465.099999	79.726	33.833
465	79.684999	33.818
464.9	79.683	33.864
464.8	79.698	33.838
464.699999	79.663	33.831
464.599999	79.735	33.852
464.5	79.686	33.888
464.4	79.659	33.857
464.3	79.72	33.883
464.199999	79.669	33.867999
464.099999	79.646	33.853
464	79.712999	33.861
463.9	79.661	33.872
463.8	79.596	33.867
463.699999	79.687	33.864
463.599999	79.668	33.873
463.5	79.688	33.89
463.4	79.622	33.885
463.3	79.634	33.894
463.199999	79.673	33.886
463.099999	79.655	33.896
463	79.646	33.873
462.9	79.640999	33.92
462.8	79.662	33.908
462.699999	79.65	33.896
462.599999	79.631	33.907
462.5	79.617	33.94
462.4	79.611	33.926
462.3	79.605	33.948
462.199999	79.605999	33.951
462.099999	79.608999	33.951
462	79.593	33.957
461.9	79.595	33.946
461.8	79.629	33.949
461.699999	79.601999	33.946
461.599999	79.548	33.953
461.5	79.566999	33.968
461.4	79.588	33.956
461.3	79.612	33.959
461.199999	79.615	33.98
461.099999	79.615	34.004
461	79.612	34.005
460.9	79.562	34.007
460.8	79.596	34.008
460.699999	79.574	34.008
460.599999	79.547	34.028
460.5	79.590999	34.017
460.4	79.584	34.018
460.3	79.571	34.026
460.199999	79.593999	34.037
460.099999	79.574999	34.052
460	79.584	34.062
459.9	79.61	34.044999
459.8	79.611	34.053
459.699999	79.534	34.073
459.599999	79.545	34.074
459.5	79.565	34.105
459.4	79.581999	34.117
459.3	79.578999	34.105999
459.199999	79.526	34.089
459.099999	79.5	34.115
459	79.53	34.131
458.9	79.432999	34.108
458.8	79.535	34.158
458.699999	79.474	34.119
458.599999	79.554999	34.174
458.5	79.514	34.148
458.4	79.527	34.155
458.3	79.574999	34.147
458.199999	79.513	34.168
458.099999	79.508	34.19
458	79.502	34.174
457.9	79.526	34.188
457.8	79.526	34.196
457.699999	79.511	34.195
457.599999	79.440999	34.208
457.5	79.444	34.212
457.4	79.479	34.217
457.3	79.527	34.225
457.199999	79.489	34.225
457.099999	79.5	34.225
457	79.485	34.225
456.9	79.43	34.227999
456.8	79.447	34.227
456.699999	79.502	34.233999
456.599999	79.471	34.267
456.5	79.458	34.283
456.4	79.479999	34.282
456.3	79.517	34.291
456.199999	79.483999	34.293
456.099999	79.482	34.298
456	79.47	34.311
455.9	79.412	34.302
455.8	79.425	34.313
455.699999	79.477	34.334
455.599999	79.45	34.343
455.5	79.396	34.333
455.4	79.432999	34.347
455.3	79.432	34.345
455.199999	79.388	34.347
455.099999	79.423	34.346
455	79.398	34.357
454.9	79.444999	34.385
454.8	79.399	34.359
454.699999	79.383	34.366
454.599999	79.376	34.379
454.5	79.420999	34.412
454.4	79.429	34.394
454.3	79.343	34.424
454.199999	79.373	34.424
454.099999	79.43	34.43
454	79.392	34.435
453.9	79.39	34.448
453.8	79.399	34.489
453.699999	79.372	34.457
453.599999	79.343	34.465
453.5	79.292	34.459
453.4	79.367	34.509
453.3	79.32	34.495
453.199999	79.366	34.521
453.099999	79.38	34.515
453	79.361	34.51
452.9	79.408	34.516
452.8	79.366	34.544
452.699999	79.344	34.55
452.599999	79.357	34.529
452.5	79.393	34.554
452.4	79.328	34.581
452.3	79.345	34.583
452.199999	79.364999	34.592
452.099999	79.344	34.572
452	79.322	34.56
451.9	79.305	34.595
451.8	79.3	34.601
451.699999	79.286	34.627
451.599999	79.334999	34.579
451.5	79.412	34.611999
451.4	79.332	34.633
451.3	79.252	34.651
451.199999	79.305	34.666
451.099999	79.337999	34.659
451	79.349	34.657
450.9	79.313	34.652
450.8	79.269	34.663
450.699999	79.322999	34.694
450.599999	79.321	34.695
450.5	79.262999	34.677
450.4	79.279	34.679
450.3	79.286999	34.702
450.199999	79.305	34.725
450.099999	79.303	34.732
450	79.267	34.758
449.9	79.252	34.753
449.8	79.245	34.739
449.699999	79.286999	34.771
449.599999	79.285	34.777
449.5	79.274999	34.776
449.4	79.259	34.762
449.3	79.223	34.775
449.199999	79.3	34.782999
449.099999	79.301	34.806
449	79.221	34.812
448.9	79.223	34.799
448.8	79.207	34.811
448.699999	79.218	34.836
448.599999	79.203999	34.843
448.5	79.221	34.857
448.4	79.245	34.849
448.3	79.195	34.896
448.199999	79.246	34.887
448.099999	79.203	34.905
448	79.198	34.878
447.9	79.262	34.894
447.8	79.259999	34.906
447.699999	79.205	34.866
447.599999	79.209	34.894
447.5	79.188999	34.914
447.4	79.155	34.929
447.3	79.188999	34.917
447.199999	79.123	34.962
447.099999	79.167	34.968
447	79.203999	34.965
446.9	79.161	34.983
446.8	79.145	34.974
446.699999	79.176999	34.997
446.599999	79.23	35.023
446.5	79.21	35.012
446.4	79.16	35.003
446.3	79.149999	35.024
446.199999	79.176	35.028
446.099999	79.104	35.028
446	79.078999	35.047
445.9	79.166	35.048
445.8	79.191	35.076
445.699999	79.171	35.076
445.599999	79.108999	35.08
445.5	79.095	35.068
445.4	79.101999	35.07
445.3	79.104	35.08
445.199999	79.054	35.109
445.099999	79.076	35.122
445	79.096999	35.145
444.9	79.117	35.154999
444.8	79.117	35.165
444.699999	79.076	35.18
444.599999	79.095	35.162
444.5	79.13	35.168
444.4	79.09	35.195
444.3	79.071	35.191
444.199999	79.112	35.218
444.099999	79.171	35.211
444	79.133	35.2
443.9	79.133	35.212
443.8	79.088	35.227
443.699999	79.077	35.245
443.599999	79.088	35.198
443.5	79.065	35.243
443.4	79.081999	35.291
443.3	79.069	35.284
443.199999	79.059	35.261
443.099999	79.062	35.267
443	79.018	35.24
442.9	79.042	35.286
442.8	79.033	35.298
442.699999	79.068	35.299
442.599999	79.054	35.325
442.5	79.008	35.308
442.4	79.045	35.363
442.3	79.005	35.358
442.199999	79.015999	35.385
442.099999	78.938	35.326
442	78.93	35.365
441.9	78.974	35.37
441.8	79.042999	35.383
441.699999	78.943	35.382
441.599999	78.97	35.403
441.5	79.046	35.408
441.4	78.934	35.456
441.3	78.944999	35.456
441.199999	78.917	35.448
441.099999	78.944	35.449
441	78.977	35.455
440.9	78.965	35.459
440.8	78.943	35.442
440.699999	78.978	35.443
440.599999	78.988	35.458
440.5	78.927	35.492
440.4	78.928	35.498
440.3	78.952	35.507
440.199999	78.988	35.527
440.099999	78.971999	35.52
440	78.959999	35.527
439.9	78.986	35.544
439.8	78.962	35.565
439.699999	78.968	35.545
439.599999	78.961	35.547
439.5	78.896999	35.546
439.4	78.9	35.575
439.3	78.922	35.597
439.199999	78.901	35.602
439.099999	78.864	35.596
439	78.898	35.62
438.9	78.869999	35.613
438.8	78.842999	35.61
438.699999	78.866	35.599
438.599999	78.868	35.634
438.5	78.827	35.633
438.4	78.891	35.628
438.3	78.827	35.675
438.199999	78.802	35.631
438.099999	78.810999	35.643
438	78.873	35.651
437.9	78.856	35.69
437.8	78.901	35.674
437.699999	78.846999	35.674
437.599999	78.837	35.665
437.5	78.904	35.67
437.4	78.839	35.697
437.3	78.852	35.765
437.199999	78.816	35.79
437.099999	78.797	35.713
437	78.817	35.744
436.9	78.794	35.747
436.8	78.822	35.76
436.699999	78.836	35.781
436.599999	78.848	35.791
436.5	78.778	35.78
436.4	78.810999	35.796
436.3	78.896	35.797
436.199999	78.825	35.791
436.099999	78.869999	35.837
436	78.739	35.818
435.9	78.764	35.829
435.8	78.739	35.841
435.699999	78.79	35.837
435.599999	78.78	35.851
435.5	78.782	35.866
435.4	78.742999	35.865
435.3	78.752	35.878
435.199999	78.698	35.89
435.099999	78.703	35.86
435	78.756	35.885
434.9	78.722	35.907
434.8	78.724	35.924
434.699999	78.723	35.945
434.599999	78.726	35.97
434.5	78.752	35.958
434.4	78.742	35.951
434.3	78.724	35.953
434.199999	78.715	35.944
434.099999	78.702	35.98
434	78.691	35.973
433.9	78.747	35.975
433.8	78.730999	35.994
433.699999	78.676	35.984
433.599999	78.71	35.985
433.5	78.78	36.004
433.4	78.722	36.027
433.3	78.7	36.023
433.199999	78.724999	36.002
433.099999	78.647	36.013
433	78.619	36.015
432.9	78.730999	36.067
432.8	78.718	36.09
432.699999	78.614999	36.052
432.599999	78.63	36.087
432.5	78.67	36.106
432.4	78.676	36.108
432.3	78.67	36.082
432.199999	78.672	36.095
432.099999	78.619	36.125
432	78.694	36.078
431.9	78.605	36.13
431.8	78.635	36.158
431.699999	78.641	36.148
431.599999	78.613	36.152
431.5	78.632	36.16
431.4	78.585	36.181
431.3	78.666	36.172
431.199999	78.635	36.173
431.099999	78.578	36.164
431	78.585	36.201
430.9	78.551	36.193
430.8	78.574999	36.177
430.699999	78.59	36.205
430.599999	78.601	36.22
430.5	78.586999	36.229
430.4	78.566999	36.271
430.3	78.619	36.238
430.199999	78.608999	36.242
430.099999	78.527999	36.261
430	78.523	36.265
429.9	78.53	36.268
429.8	78.573	36.273
429.699999	78.55	36.282
429.599999	78.545	36.294
429.5	78.519	36.305
429.4	78.519	36.295
429.3	78.554999	36.305
429.199999	78.514	36.297
429.099999	78.509	36.296
429	78.474	36.328
428.9	78.451	36.329
428.8	78.489	36.315
428.699999	78.498	36.332
428.599999	78.539	36.348
428.5	78.542	36.38
428.4	78.537	36.393
428.3	78.498	36.345
428.199999	78.503	36.348
428.099999	78.542	36.373
428	78.559	36.372
427.9	78.509	36.394
427.8	78.471999	36.405
427.699999	78.512	36.412
427.599999	78.44	36.413
427.5	78.393	36.39
427.4	78.454	36.43
427.3	78.52	36.432
427.199999	78.458	36.466
427.099999	78.449	36.467
427	78.485	36.472
426.9	78.483	36.45
426.8	78.468	36.474
426.699999	78.438	36.507
426.599999	78.473	36.506
426.5	78.42	36.442
426.4	78.468999	36.507
426.3	78.416	36.498
426.199999	78.395	36.505
426.099999	78.364999	36.522
426	78.437	36.525
425.9	78.41	36.522
425.8	78.384	36.547
425.699999	78.381999	36.501
425.599999	78.383	36.524
425.5	78.494	36.549
425.4	78.396	36.533
425.3	78.38	36.548
425.199999	78.425	36.571
425.099999	78.427	36.571
425	78.33	36.576
424.9	78.376	36.612
424.8	78.412	36.603
424.699999	78.361	36.61
424.599999	78.398	36.617
424.5	78.33	36.626
424.4	78.312	36.632
424.3	78.384	36.646
424.199999	78.420999	36.656
424.099999	78.392	36.683
424	78.342999	36.653
423.9	78.327	36.65
423.8	78.346	36.642
423.699999	78.364999	36.64
423.599999	78.379	36.663
423.5	78.392	36.691
423.4	78.317	36.687
423.3	78.295999	36.684
423.199999	78.322	36.713
423.099999	78.298999	36.71
423	78.333	36.694
422.9	78.358999	36.716
422.8	78.271999	36.736999
422.699999	78.3	36.735
422.599999	78.346999	36.772
422.5	78.403	36.731
422.4	78.357	36.722
422.3	78.273	36.724
422.199999	78.297	36.75
422.099999	78.254	36.786
422	78.309	36.757
421.9	78.333	36.771
421.8	78.227	36.746
421.699999	78.206	36.76
421.599999	78.191999	36.769
421.5	78.161	36.781
421.4	78.227	36.766
421.3	78.242	36.779
421.199999	78.188	36.77
421.099999	78.208	36.779
421	78.198	36.786
420.9	78.176	36.807
420.8	78.219	36.809
420.699999	78.183	36.823
420.599999	78.200999	36.793
420.5	78.212	36.831
420.4	78.173	36.841
420.3	78.214	36.832
420.199999	78.183	36.855
420.099999	78.149	36.871
420	78.137	36.853
419.9	78.143	36.869
419.8	78.135	36.87
419.699999	78.147	36.867
419.599999	78.164999	36.886
419.5	78.176	36.871
419.4	78.163	36.873
419.3	78.152999	36.888
419.199999	78.17	36.898
419.099999	78.155	36.918
419	78.101	36.925
418.9	78.095	36.939
418.8	78.098999	36.933
418.699999	78.104	36.932
418.599999	78.119	36.929
418.5	78.102999	36.959
418.4	78.09	36.958
418.3	78.076	36.961
418.199999	78.063999	36.966
418.099999	78.066999	36.977
418	78.053	36.981
417.9	78.051999	36.969
417.8	78.054999	36.977
417.699999	78.048	37
417.599999	78.075	37.015
417.5	78.081	37.021
417.4	78.068	37.017
417.3	78.053	37.018
417.199999	78.027999	37.025
417.099999	78.053	37.02
417	78.065	37.013
416.9	78.038	37.021
416.8	78.038	37.026
416.699999	78.029	37.04
416.599999	78.02	37.05
416.5	78.019	37.049
416.4	78.018	37.067
416.3	77.995	37.069
416.199999	78.007	37.07
416.099999	77.952999	37.068
416	77.968	37.094
415.9	77.994	37.072
415.8	77.996	37.092
415.699999	78.003999	37.111
415.599999	78.013	37.101
415.5	77.971999	37.099
415.4	78.003999	37.129
415.3	77.97	37.108999
415.199999	78.011	37.134
415.099999	77.907	37.15
415	77.967	37.139
414.9	77.986999	37.13
414.8	77.955	37.149
414.699999	77.975	37.162
414.599999	77.947	37.156
414.5	77.905	37.14
414.4	77.949	37.167
414.3	77.904	37.159
414.199999	77.884	37.168
414.099999	77.902	37.19
414	77.934	37.182
413.9	77.922	37.199
413.8	77.951	37.209
413.699999	77.929999	37.2
413.599999	77.929	37.207
413.5	77.901	37.205
413.4	77.887	37.232
413.3	77.905999	37.239
413.199999	77.912	37.227
413.099999	77.908	37.219
413	77.88	37.239
412.9	77.844	37.252
412.8	77.893	37.249
412.699999	77.884	37.245
412.599999	77.858	37.255
412.5	77.861999	37.269
412.4	77.858	37.277
412.3	77.863	37.271
412.199999	77.879	37.29
412.099999	77.886	37.285
412	77.868	37.293
411.9	77.822	37.302
411.8	77.819	37.282
411.699999	77.821	37.291
411.599999	77.794	37.289
411.5	77.801	37.302
411.4	77.795999	37.318
411.3	77.788	37.338
411.199999	77.769	37.335
411.099999	77.806	37.323
411	77.809	37.327
410.9	77.783	37.329
410.8	77.759	37.35
410.699999	77.764	37.367
410.599999	77.759999	37.357
410.5	77.769	37.369
410.4	77.729	37.343
410.3	77.761	37.369
410.199999	77.742	37.378
410.099999	77.735	37.374
410	77.767	37.375
409.9	77.778	37.382
409.8	77.756	37.391
409.699999	77.712	37.404
409.599999	77.75	37.395
409.5	77.732999	37.413
409.4	77.778	37.419999
409.3	77.746	37.411
409.199999	77.706	37.409
409.099999	77.693	37.425999
409	77.663	37.43
408.9	77.73	37.417
408.8	77.747	37.428
408.699999	77.717	37.445
408.599999	77.726	37.448
408.5	77.715999	37.435
408.4	77.692	37.439
408.3	77.69	37.443
408.199999	77.692	37.451
408.099999	77.668	37.463
408	77.694	37.476
407.9	77.673999	37.47
407.8	77.646	37.488
407.699999	77.659	37.486
407.599999	77.669999	37.48
407.5	77.68	37.486999
407.4	77.605999	37.492
407.3	77.602	37.488
407.199999	77.621	37.492999
407.099999	77.598	37.508
407	77.624	37.507
406.9	77.621	37.511
406.8	77.595	37.499
406.699999	77.604	37.517
406.599999	77.592	37.53
406.5	77.584	37.529
406.4	77.577	37.523
406.3	77.548	37.53
406.199999	77.532	37.54
406.099999	77.523	37.569
406	77.562	37.556
405.9	77.556	37.563
405.8	77.538	37.577
405.699999	77.526	37.579
405.599999	77.525	37.585
405.5	77.5	37.585
405.4	77.554999	37.61
405.3	77.518	37.586
405.199999	77.566	37.587
405.099999	77.48	37.591
405	77.501	37.595
404.9	77.494	37.612
404.8	77.5	37.629
404.699999	77.507	37.637
404.599999	77.482	37.644
404.5	77.506	37.637
404.4	77.551	37.646
404.3	77.44	37.669
404.199999	77.494	37.669999
404.099999	77.441	37.687
404	77.5	37.676
403.9	77.532	37.688
403.8	77.483999	37.694
403.699999	77.475	37.673
403.599999	77.447	37.703
403.5	77.441999	37.704
403.4	77.511	37.716
403.3	77.474	37.721
403.199999	77.462	37.717
403.099999	77.482	37.728
403	77.483	37.736
402.9	77.41	37.749
402.8	77.425	37.748
402.699999	77.422	37.74
402.599999	77.437	37.771
402.5	77.431	37.789
402.4	77.435	37.776
402.3	77.473	37.775
402.199999	77.446	37.774
402.099999	77.411	37.779
402	77.381	37.799
401.9	77.344	37.793
401.8	77.375	37.796
401.699999	77.371	37.82
401.599999	77.375	37.837
401.5	77.407	37.832
401.4	77.346999	37.842
401.3	77.33	37.846999
401.199999	77.348	37.849
401.099999	77.313	37.852
401	77.322	37.858
400.9	77.346999	37.874
400.8	77.383	37.876
400.699999	77.374	37.883
400.599999	77.354	37.903
400.5	77.339	37.892
400.4	77.295	37.902
400.3	77.34	37.924
400.199999	77.346	37.918
400.099999	77.310999	37.916
400	77.271999	37.932
399.9	77.28	37.935
399.8	77.294	37.956
399.699999	77.279	37.937
399.599999	77.313	37.946
399.5	77.315	37.952
399.4	77.279	37.937
399.3	77.266	37.974
399.199999	77.276	37.987
399.099999	77.251	37.987
399	77.276	38.003
398.9	77.206	37.993
398.8	77.234	38.032
398.699999	77.244	38.015
398.599999	77.239999	38.016
398.5	77.239999	38.034
398.4	77.269	38.047
398.3	77.203999	38.047
398.199999	77.239	38.047
398.099999	77.232	38.035
398	77.21	38.078
397.9	77.209	38.083
397.8	77.192	38.078
397.699999	77.195	38.087
397.599999	77.215999	38.089
397.5	77.168	38.086
397.4	77.197999	38.08
397.3	77.172	38.12
397.199999	77.18	38.119
397.099999	77.16	38.118
397	77.199	38.133
396.9	77.158	38.128
396.8	77.169	38.137
396.699999	77.143	38.15
396.599999	77.122999	38.159
396.5	77.14	38.176
396.4	77.173	38.19
396.3	77.193	38.19
396.199999	77.176999	38.186
396.099999	77.168	38.176
396	77.173999	38.19
395.9	77.125999	38.18
395.8	77.110999	38.187
395.699999	77.093	38.205
395.599999	77.11	38.22
395.5	77.063	38.223
395.4	77.038	38.228
395.3	77.063999	38.233
395.199999	77.075	38.246
395.099999	77.077	38.244
395	77.045	38.247
394.9	77.047	38.254
394.8	77.036	38.245
394.699999	77.057	38.252
394.599999	77.098999	38.26
394.5	77.038	38.29
394.4	77.077	38.293
394.3	77.036	38.302
394.199999	77.036	38.298
394.099999	77.014	38.303
394	77.054999	38.288
393.9	76.967	38.337
393.8	76.998	38.332
393.699999	77.021	38.304
393.599999	77.023	38.344
393.5	77.009	38.356
393.4	76.996	38.36
393.3	76.961	38.364
393.199999	76.985	38.376
393.099999	76.971	38.35
393	76.937999	38.401
392.9	76.955	38.394
392.8	76.947	38.39
392.699999	76.94	38.397
392.599999	76.968	38.398
392.5	76.987	38.404
392.4	76.949	38.42
392.3	76.87	38.433
392.199999	76.903	38.434
392.099999	76.953999	38.44
392	76.895	38.451
391.9	76.914	38.456
391.8	76.893999	38.449
391.699999	76.895	38.452
391.599999	76.909	38.462
391.5	76.928	38.479
391.4	76.943	38.479
391.3	76.907	38.491
391.199999	76.909	38.496
391.099999	76.86	38.51
391	76.837	38.515
390.9	76.807999	38.516
390.8	76.801	38.522
390.699999	76.841	38.527
390.599999	76.831	38.531
390.5	76.816	38.542
390.4	76.86	38.55
390.3	76.86	38.555
390.199999	76.816	38.556
390.099999	76.8	38.551
390	76.813	38.57
389.9	76.819999	38.574
389.8	76.773	38.579
389.699999	76.752	38.578
389.599999	76.739	38.563
389.5	76.773	38.577
389.4	76.734	38.59
389.3	76.735	38.598
389.199999	76.717	38.616
389.099999	76.771999	38.633
389	76.735	38.621
388.9	76.697	38.646
388.8	76.67	38.657
388.699999	76.696	38.67
388.599999	76.776	38.653
388.5	76.741	38.678
388.4	76.685	38.679
388.3	76.712999	38.676
388.199999	76.693	38.662
388.099999	76.752	38.707
388	76.732	38.692
387.9	76.755	38.705
387.8	76.683	38.711
387.699999	76.685	38.703
387.599999	76.738	38.694
387.5	76.754	38.733
387.4	76.679	38.724
387.3	76.700999	38.725
387.199999	76.681999	38.721
387.099999	76.715999	38.748
387	76.672	38.761
386.9	76.655	38.752
386.8	76.616	38.758
386.699999	76.602	38.793
386.599999	76.598999	38.788
386.5	76.607	38.789
386.4	76.616	38.819
386.3	76.590999	38.788
386.199999	76.605999	38.8
386.099999	76.595	38.826
386	76.584	38.834
385.9	76.587999	38.841
385.8	76.616	38.845
385.699999	76.593	38.864
385.599999	76.554999	38.87
385.5	76.569	38.856
385.4	76.535	38.858
385.3	76.533	38.859
385.199999	76.539	38.866
385.099999	76.533	38.884
385	76.551999	38.9
384.9	76.537	38.916
384.8	76.534	38.928
384.699999	76.551	38.925
384.599999	76.546	38.917
384.5	76.558	38.942
384.4	76.514	38.953
384.3	76.468999	38.937
384.199999	76.512999	38.952
384.099999	76.653	38.943
384	76.614999	38.919
383.9	76.51	38.973
383.8	76.499	38.961
383.699999	76.692	39.162
383.599999	76.525	39.034
383.5	76.526	39.03
383.4	76.319	39.007
383.3	76.52	38.845
383.199999	76.554	38.945
383.099999	76.664	38.962
383	76.578999	38.947
382.9	76.341	39.029
382.8	76.4	39.058
382.699999	76.565	39.011
382.599999	76.447	38.963
382.5	76.53	39.024
382.4	76.29	39.028
382.3	76.639	39.025
382.199999	76.491	39.003
382.099999	76.374	39.063
382	76.419	39.065
381.9	76.444999	39.128
381.8	76.327	39.131
381.699999	76.468	39.086
381.599999	76.265	39.107
381.5	76.413	39.124
381.4	76.358	39.206
381.3	76.434	39.137
381.199999	76.315999	39.145
381.099999	76.215999	39.13
381	76.236	39.18
380.9	76.303	39.171
380.8	76.289	39.176
380.699999	76.303	39.148
380.599999	76.246	39.178
380.5	76.264	39.203
380.4	76.203	39.205
380.3	76.218	39.211
380.199999	76.263	39.232
380.099999	76.307999	39.243
380	76.334	39.239
379.9	76.336	39.237
379.8	76.28	39.268
379.699999	76.268999	39.324
379.599999	76.278	39.302
379.5	76.193	39.303
379.4	76.253	39.295
379.3	76.252	39.34
379.199999	76.202	39.338
379.099999	76.185999	39.313
379	76.184	39.333
378.9	76.287	39.363
378.8	76.324	39.355
378.699999	76.253	39.307
378.599999	76.188999	39.338
378.5	76.139	39.362
378.4	76.113	39.346
378.3	76.149999	39.381
378.199999	76.132	39.361
378.099999	76.166	39.37
378	76.085	39.416
377.9	76.107	39.432
377.8	76.17	39.508
377.699999	76.114999	39.426
377.599999	76.208	39.417
377.5	76.196	39.405
377.4	76.178	39.498
377.3	76.087999	39.44
377.199999	76.202	39.456
377.099999	76.078999	39.484
377	76.083	39.446
376.9	75.955	39.534
376.8	76.161999	39.501
376.699999	76.114999	39.509
376.599999	76.154	39.544
376.5	76.173	39.617999
376.4	76.036	39.573
376.3	76.015999	39.55
376.199999	76.084	39.607
376.099999	76.098	39.596
376	76.078	39.631
375.9	76.113	39.615
375.8	76.085	39.623
375.699999	76.012999	39.633
375.599999	76.006	39.606
375.5	75.961999	39.642
375.4	76.039	39.667
375.3	76.056	39.66
375.199999	76.044	39.656
375.099999	75.998	39.668
375	76.000999	39.689
374.9	76.117999	39.729
374.8	76.105999	39.7
374.699999	75.987	39.69
374.599999	76.018	39.72
374.5	76.035	39.72
374.4	75.988999	39.751
374.3	75.932	39.774
374.199999	75.949999	39.767
374.099999	75.961	39.791
374	75.936	39.819
373.9	75.976999	39.818
373.8	75.97	39.807
373.699999	76.002	39.805
373.599999	76.003	39.817
373.5	75.901	39.842
373.4	75.921	39.849
373.3	75.953	39.837
373.199999	75.877	39.85
373.099999	75.795	39.894
373	75.804	39.881
372.9	75.858999	39.856
372.8	75.826	39.909
372.699999	75.807	39.914
372.599999	75.852	39.96
372.5	75.883	39.966
372.4	75.838	39.961
372.3	75.794	39.972
372.199999	75.817	39.947
372.099999	75.751	39.962
372	75.778	39.959
371.9	75.813	40.004
371.8	75.739999	39.979
371.699999	75.744	40.07
371.599999	75.764	40.067
371.5	75.798	40.085
371.4	75.78	40.074
371.3	75.775	40.117
371.199999	75.761	40.093
371.099999	75.695	40.153
371	75.768999	40.105
370.9	75.742	40.106
370.8	75.692	40.139
370.699999	75.736	40.108
370.599999	75.771	40.182
370.5	75.682	40.169
370.4	75.61	40.193
370.3	75.631	40.212
370.199999	75.675	40.197
370.099999	75.681	40.183
370	75.649999	40.239999
369.9	75.715	40.248
369.8	75.742	40.235
369.699999	75.726	40.244
369.599999	75.661	40.251
369.5	75.617999	40.267
369.4	75.637	40.304
369.3	75.658	40.311
369.199999	75.641	40.298
369.099999	75.619	40.298
369	75.614999	40.319
368.9	75.62	40.316
368.8	75.573	40.341
368.699999	75.523	40.361
368.599999	75.542	40.355999
368.5	75.55	40.367
368.4	75.574	40.374
368.3	75.526	40.392
368.199999	75.535	40.416999
368.099999	75.52	40.43
368	75.536999	40.436
367.9	75.5	40.437
367.8	75.524999	40.448
367.699999	75.549	40.489999
367.599999	75.598	40.464
367.5	75.488999	40.481
367.4	75.48	40.518
367.3	75.494	40.501
367.199999	75.465	40.501
367.099999	75.485	40.498
367	75.463	40.507
366.9	75.492	40.483999
366.8	75.524	40.517
366.699999	75.372	40.553
366.599999	75.5	40.566
366.5	75.492	40.572
366.4	75.395	40.595
366.3	75.451	40.594
366.199999	75.327	40.632
366.099999	75.387	40.657
366	75.465	40.699
365.9	75.456999	40.636
365.8	75.374	40.637
365.699999	75.419	40.681
365.599999	75.456999	40.669
365.5	75.438	40.66
365.4	75.295	40.694
365.3	75.349	40.674
365.199999	75.378	40.674
365.099999	75.414	40.715
365	75.331999	40.697
364.9	75.298	40.705
364.8	75.346	40.721
364.699999	75.366999	40.738
364.599999	75.382	40.751
364.5	75.361	40.777
364.4	75.353	40.785
364.3	75.378999	40.806
364.199999	75.273	40.813
364.099999	75.259	40.821
364	75.26	40.835
363.9	75.243	40.831
363.8	75.264	40.841
363.699999	75.267	40.857
363.599999	75.278	40.871
363.5	75.291	40.906
363.4	75.216	40.884
363.3	75.212999	40.874
363.199999	75.19	40.897
363.099999	75.168	40.9
363	75.215	40.887
362.9	75.214	40.935
362.8	75.229999	40.938
362.699999	75.224999	40.925
362.599999	75.242	40.947
362.5	75.185999	40.93
362.4	75.211	40.957
362.3	75.11	40.998
362.199999	75.105	41.008
362.099999	75.17	41.002
362	75.17	41.018
361.9	75.156	40.991
361.8	75.151	41.017
361.699999	75.132	41.051
361.599999	75.078	41.042
361.5	75.051	41.064
361.4	75.109	41.06
361.3	75.121	41.067
361.199999	75.095999	41.094
361.099999	75.164	41.06
361	75.108	41.059
360.9	74.994	41.082
360.8	75.066999	41.145
360.699999	75.024999	41.167
360.599999	75.083	41.145
360.5	75.02	41.183
360.4	75.058	41.167
360.3	75.026	41.227999
360.199999	75.039999	41.223
360.099999	75.027	41.237
360	75.011	41.2
359.9	74.941999	41.251
359.8	75.024	41.242
359.699999	75.065	41.242
359.599999	75.053	41.26
359.5	75.038	41.273
359.4	75.022	41.243
359.3	74.95	41.242
359.199999	74.941	41.26
359.099999	74.944999	41.294
359	74.977999	41.305
358.9	74.972	41.295
358.8	74.973	41.314
358.699999	74.924	41.312
358.599999	74.94	41.336
358.5	74.964	41.358
358.4	74.922	41.356
358.3	74.936	41.364
358.199999	74.935	41.355
358.099999	74.866	41.353
358	74.827	41.379
357.9	74.843999	41.412
357.8	74.929	41.411
357.699999	74.96	41.415
357.599999	74.941	41.441
357.5	74.851	41.432
357.4	74.846	41.44
357.3	74.882	41.451
357.199999	74.855999	41.456
357.099999	74.834999	41.438
357	74.816	41.48
356.9	74.834999	41.5
356.8	74.821	41.501
356.699999	74.846	41.51
356.599999	74.776	41.519
356.5	74.754	41.519
356.4	74.775	41.538
356.3	74.794	41.559
356.199999	74.77	41.592
356.099999	74.723	41.601
356	74.776	41.557
355.9	74.794	41.589
355.8	74.697	41.569
355.699999	74.723	41.581
355.599999	74.693	41.61
355.5	74.849	41.584
355.4	74.678	41.548
355.3	74.709999	41.602
355.199999	74.677	41.603
355.099999	74.68	41.593
355	74.735	41.628
354.9	74.641	41.639
354.8	74.717999	41.659
354.699999	74.641	41.688
354.599999	74.645	41.707
354.5	74.655	41.671
354.4	74.563	41.728
354.3	74.599	41.708
354.199999	74.653	41.718
354.099999	74.598	41.754
354	74.622	41.713
353.9	74.597	41.756
353.8	74.546	41.776
353.699999	74.542	41.733
353.599999	74.563	41.735
353.5	74.524999	41.771
353.4	74.546	41.768
353.3	74.531	41.815
353.199999	74.48	41.806
353.099999	74.529	41.814
353	74.562	41.872
352.9	74.512999	41.853
352.8	74.492	41.84
352.699999	74.499	41.844
352.599999	74.422	41.85
352.5	74.438	41.858
352.4	74.482	41.873
352.3	74.480999	41.891
352.199999	74.48	41.894
352.099999	74.5	41.921
352	74.426	41.967
351.9	74.367999	41.934
351.8	74.416	41.913
351.699999	74.412	41.928
351.599999	74.394	41.955
351.5	74.381	41.924
351.4	74.38	41.959999
351.3	74.358	41.968
351.199999	74.416	41.957
351.099999	74.39	41.966
351	74.311	41.955
350.9	74.337	42.017
350.8	74.36	41.972
350.699999	74.312	42.017
350.599999	74.298	42.019
350.5	74.247	42.001
350.4	74.329	42.017
350.3	74.343999	42.062
350.199999	74.334	42.026
350.099999	74.268	42.044
350	74.307999	42.055
349.9	74.331999	42.107
349.8	74.283999	42.073
349.699999	74.285	42.053
349.599999	74.273	42.103
349.5	74.172	42.065
349.4	74.241	42.115
349.3	74.287	42.156
349.199999	74.266	42.164
349.099999	74.266	42.107
349	74.243	42.153
348.9	74.258	42.116
348.8	74.185	42.13
348.699999	74.173	42.17
348.599999	74.232	42.182
348.5	74.197999	42.201
348.4	74.229	42.177
348.3	74.203	42.174
348.199999	74.143	42.182
348.099999	74.156	42.23
348	74.119	42.22
347.9	74.119999	42.247
347.8	74.117	42.23
347.699999	74.134999	42.224
347.599999	74.114999	42.234
347.5	74.107999	42.253
347.4	74.132	42.291
347.3	74.099	42.286
347.199999	74.078999	42.264
347.099999	74.075999	42.265
347	74.063999	42.28
346.9	74.045	42.29
346.8	74.024	42.297
346.699999	74.036	42.314
346.599999	74.05	42.353
346.5	74.071	42.379
346.4	74.034	42.411
346.3	73.999	42.388
346.199999	73.950999	42.373
346.099999	73.956	42.362
346	74.006	42.36
345.9	73.911	42.399
345.8	73.889	42.337
345.699999	73.968	42.365
345.599999	73.919	42.448
345.5	73.962999	42.438
345.4	74.034	42.427
345.3	74.056	42.427
345.199999	73.938999	42.407
345.099999	73.872	42.423
345	73.853	42.461
344.9	73.886	42.48
344.8	73.851	42.439
344.699999	73.871	42.467
344.599999	73.857	42.544
344.5	73.897	42.458
344.4	73.854	42.521
344.3	73.791	42.498
344.199999	73.779	42.484
344.099999	73.818	42.511
344	73.786	42.52
343.9	73.853	42.533
343.8	73.774	42.508
343.699999	73.825	42.556
343.599999	73.753	42.556
343.5	73.758	42.561
343.4	73.724999	42.606
343.3	73.696	42.573
343.199999	73.764	42.529
343.099999	73.79	42.601
343	73.744	42.592
342.9	73.723	42.606
342.8	73.69	42.664
342.699999	73.675	42.641
342.599999	73.687	42.645
342.5	73.697	42.66
342.4	73.68	42.631
342.3	73.638	42.642
342.199999	73.644	42.66
342.099999	73.599	42.635
342	73.622	42.642
341.9	73.623	42.68
341.8	73.658	42.663
341.699999	73.662	42.652
341.599999	73.616	42.661
341.5	73.555	42.65
341.4	73.551999	42.663
341.3	73.626	42.668
341.199999	73.622	42.682
341.099999	73.651	42.724
341	73.66	42.757
340.9	73.507	42.797
340.8	73.491	42.769
340.699999	73.494	42.721
340.599999	73.509	42.741
340.5	73.58	42.797
340.4	73.590999	42.777
340.3	73.565	42.803
340.199999	73.534	42.798
340.099999	73.474999	42.783
340	73.42	42.761
339.9	73.485	42.779
339.8	73.489999	42.73
339.699999	73.402	42.776
339.599999	73.508	42.76
339.5	73.473	42.802
339.4	73.422	42.79
339.3	73.416	42.757
339.199999	73.334	42.771
339.099999	73.223	42.819
339	73.494	42.824
338.9	73.292999	42.895
338.8	73.382	42.909
338.699999	73.316	42.847
338.599999	73.408	42.853
338.5	73.406	42.932
338.4	73.346999	42.912
338.3	73.33	42.819
338.199999	73.218999	42.873
338.099999	73.25	42.889
338	73.189	42.924
337.9	73.263	42.884
337.8	73.284	42.888
337.699999	73.265	42.888
337.599999	73.316999	42.927
337.5	73.309	42.942
337.4	73.206	42.953
337.3	73.233	42.873
337.199999	73.228	42.902
337.099999	73.267	42.97
337	73.301	42.955
336.9	73.204	42.949
336.8	73.214	42.966
336.699999	73.178	43.002
336.599999	73.164	42.986
336.5	73.149	42.999
336.4	73.151	42.998
336.3	73.149	42.998
336.199999	73.123	42.956
336.099999	73.202	42.969
336	73.218	43.027
335.9	73.109	42.996
335.8	73.178	42.974
335.699999	73.302	42.997
335.599999	73.133	43.021
335.5	73.067	43.013
335.4	73.048	42.989
335.3	73.03	43.013
335.199999	73.104	43.011
335.099999	73.163	43.019
335	73.058	43.07
334.9	73.093	43.059
334.8	73.083	43.034
334.699999	73.107999	43.086
334.599999	73.004	43.084
334.5	73	43.091
334.4	73.021999	43.086
334.3	72.897	43.198
334.199999	72.976	43.08
334.099999	72.92	43.095
334	72.976	43.066
333.9	72.946999	43.037
333.8	72.955	43.076
333.699999	72.946999	43.155
333.599999	72.926999	43.175999
333.5	72.902999	43.076
333.4	72.937	43.182
333.3	72.83	43.135
333.199999	72.958	43.199
333.099999	72.831	43.136
333	72.904	43.16
332.9	72.941	43.086
332.8	72.791	43.182
332.699999	72.902999	43.195
332.599999	72.922	43.175999
332.5	72.758	43.187
332.4	72.854	43.158
332.3	72.881	43.217
332.199999	72.836999	43.23
332.099999	72.742999	43.213
332	72.724999	43.197
331.9	72.821	43.158
331.8	72.794	43.15
331.699999	72.736999	43.209
331.599999	72.772	43.221
331.5	72.765999	43.216
331.4	72.747	43.22
331.3	72.685	43.25
331.199999	72.692	43.229
331.099999	72.756	43.221
331	72.779	43.219
330.9	72.738	43.268
330.8	72.621	43.318
330.699999	72.662	43.265
330.599999	72.72	43.234
330.5	72.729999	43.251
330.4	72.689	43.282
330.3	72.682999	43.312
330.199999	72.702	43.313
330.099999	72.579	43.268
330	72.643999	43.281
329.9	72.596999	43.283
329.8	72.53	43.342
329.699999	72.678	43.356
329.599999	72.639	43.336
329.5	72.566	43.291
329.4	72.538	43.355
329.3	72.468	43.339
329.199999	72.495	43.367
329.099999	72.505	43.297999
329	72.474	43.322
328.9	72.521999	43.332
328.8	72.559	43.25
328.699999	72.480999	43.303999
328.599999	72.53	43.288
328.5	72.363	43.346
328.4	72.36	43.339
328.3	72.523	43.248
328.199999	72.492999	43.323
328.099999	72.453999	43.338
328	72.321	43.349
327.9	72.309	43.442
327.8	72.458	43.379
327.699999	72.428	43.379
327.599999	72.372	43.394
327.5	72.75	43.693
327.4	72.780999	43.608
327.3	72.699	43.614
327.199999	72.733	43.63
327.099999	72.732	43.643
327	72.777	43.669999
326.9	72.654	43.602999
326.8	72.669	43.618
326.699999	72.679	43.644
326.599999	72.616	43.672
326.5	72.572	43.711
326.4	72.605	43.691
326.3	72.59	43.694
326.199999	72.655999	43.674
326.099999	72.711	43.692
326	72.655	43.669999
325.9	72.668	43.686
325.8	72.652	43.681
325.699999	72.601	43.655
325.599999	72.584	43.643
325.5	72.613	43.669999
325.4	72.618	43.711
325.3	72.602999	43.693
325.199999	72.580999	43.675
325.099999	72.535	43.697
325	72.448	43.707
324.9	72.524	43.698
324.8	72.495	43.703
324.699999	72.462999	43.732
324.599999	72.438999	43.749
324.5	72.461	43.74
324.4	72.476	43.765
324.3	72.458999	43.733
324.199999	72.458	43.741
324.099999	72.397	43.759
324	72.444	43.727
323.9	72.358999	43.695
323.8	72.334	43.695
323.699999	72.392	43.745
323.599999	72.474	43.729
323.5	72.446	43.757
323.4	72.292	43.755
323.3	72.316	43.74
323.199999	72.314	43.787
323.099999	72.307999	43.814
323	72.307	43.782
322.9	72.352999	43.811
322.8	72.298	43.718
322.699999	72.301999	43.763
322.599999	72.288	43.771
322.5	72.298	43.768
322.4	72.217	43.829
322.3	72.239	43.767
322.199999	72.185	43.8
322.099999	72.155999	43.776
322	72.175	43.809
321.9	72.214999	43.784
321.8	72.306	43.786
321.699999	72.28	43.765
321.599999	72.139	43.767
321.5	72.107	43.788
321.4	72.098	43.75
321.3	72.048999	43.78
321.199999	72.035	43.829
321.099999	72.108	43.807
321	72.107	43.757
320.9	72.08	43.809
320.8	72.074	43.79
320.699999	72.063999	43.791
320.599999	72.06	43.782
320.5	72.102	43.773
320.4	72.072999	43.779
320.3	72.052	43.767
320.199999	72.075999	43.816
320.099999	71.949	43.807
320	71.895	43.746
319.9	71.95	43.799
319.8	71.906	43.818
319.699999	71.921	43.852
319.599999	71.923	43.864999
319.5	71.835	43.808
319.4	71.925	43.81
319.3	71.917	43.852
319.199999	71.87	43.871
319.099999	71.902	43.829
319	71.928	43.846
318.9	71.914999	43.815
318.8	71.901	43.806
318.699999	71.815	43.899
318.599999	71.831	43.903
318.5	71.786	43.879
318.4	71.756	43.852
318.3	71.789999	43.813
318.199999	71.744	43.855
318.099999	71.792	43.828
318	71.797	43.797
317.9	71.775	43.837
317.8	71.742999	43.852999
317.699999	71.739	43.855
317.599999	71.701	43.87
317.5	71.657	43.848
317.4	71.702999	43.795
317.3	71.679	43.922
317.199999	71.655999	43.836
317.099999	71.709999	43.85
317	71.658999	43.855
316.9	71.655	43.95
316.8	71.602	43.85
316.699999	71.649	43.875
316.599999	71.596	43.91
316.5	71.616999	43.829
316.4	71.464	43.834
316.3	71.502	43.817
316.199999	71.565	43.88
316.099999	71.55	43.863
316	71.492	43.886
315.9	71.46	43.874
315.8	71.505	43.887
315.699999	71.492999	43.887
315.599999	71.48	43.827
315.5	71.5	43.86
315.4	71.525	43.846
315.3	71.532	43.857
315.199999	71.482999	43.854
315.099999	71.413	43.857
315	71.355	43.864
314.9	71.41	43.838
314.8	71.328	43.854
314.699999	71.348999	43.855
314.599999	71.34	43.879
314.5	71.343	43.91
314.4	71.357	43.879
314.3	71.372999	43.895
314.199999	71.352	43.874
314.099999	71.301	43.848
314	71.358	43.857
313.9	71.357	43.863
313.8	71.313999	43.864
313.699999	71.259	43.856
313.599999	71.186	43.854
313.5	71.217	43.864999
313.4	71.27	43.861
313.3	71.274	43.879
313.199999	71.288	43.874
313.099999	71.202	43.839
313	71.164	43.852999
312.9	71.101	43.83
312.8	71.119	43.858
312.699999	71.148	43.867
312.599999	71.148	43.915
312.5	71.161	43.888
312.4	71.099	43.901
312.3	71.137	43.913999
312.199999	71.2	43.911
312.099999	71.09	43.903
312	71.173	43.823
311.9	70.962	43.836
311.8	70.938999	43.77
311.699999	71	43.892
311.599999	71	43.804
311.5	70.992999	43.832
311.4	70.998	43.837
311.3	70.985	43.869
311.199999	70.921	43.857
311.099999	70.94	43.821
311	70.931999	43.825
310.9	70.926999	43.866
310.8	70.918	43.873
310.699999	70.867999	43.851
310.599999	70.902	43.852999
310.5	70.86	43.819
310.4	70.825	43.847
310.3	70.903	43.824
310.199999	70.902	43.821
310.099999	70.791	43.811
310	70.769	43.815
309.9	70.744	43.843
309.8	70.809	43.829
309.699999	70.837999	43.852
309.599999	70.748	43.847
309.5	70.757	43.82
309.4	70.724	43.818
309.3	70.669	43.855
309.199999	70.709	43.852999
309.099999	70.701	43.818
309	70.685	43.803
308.9	70.682	43.829
308.8	70.684	43.856
308.699999	70.663	43.835
308.599999	70.615	43.82
308.5	70.581	43.834
308.4	70.559	43.844
308.3	70.562	43.807
308.199999	70.567	43.803
308.099999	70.557	43.791
308	70.514	43.802
307.9	70.523	43.807
307.8	70.446	43.858
307.699999	70.489999	43.824
307.599999	70.525	43.797
307.5	70.418	43.816
307.4	70.443	43.847
307.3	70.509999	43.802
307.199999	70.431999	43.8
307.099999	70.369	43.843
307	70.433	43.78
306.9	70.409	43.793
306.8	70.39	43.778
306.699999	70.374	43.771
306.599999	70.359	43.784
306.5	70.268	43.801
306.4	70.261	43.783
306.3	70.232	43.768
306.199999	70.288	43.789
306.099999	70.262999	43.785
306	70.23	43.833
305.9	70.191	43.761
305.8	70.201	43.82
305.699999	70.201	43.756
305.599999	70.122	43.766
305.5	70.155	43.747
305.4	70.212	43.83
305.3	70.17	43.786
305.199999	70.203	43.817
305.099999	70.167999	43.785
305	70.128	43.799
304.9	70.111	43.799
304.8	70.042	43.752
304.699999	70.033	43.748
304.599999	70.087	43.771
304.5	70.054	43.75
304.4	69.989999	43.777
304.3	69.992	43.765
304.199999	69.982999	43.753
304.099999	70.021999	43.758
304	70.027	43.765
303.9	70.005	43.78
303.8	70.003	43.746
303.699999	69.952	43.756
303.599999	69.904	43.761
303.5	69.882	43.756
303.4	69.867	43.725
303.3	69.848	43.745
303.199999	69.878	43.762
303.099999	69.84	43.708
303	69.801999	43.7
302.9	69.803	43.734
302.8	69.76	43.728
302.699999	69.746	43.742
302.599999	69.724	43.726
302.5	69.694	43.736
302.4	69.76	43.707
302.3	69.732	43.712
302.199999	69.687	43.727
302.099999	69.744	43.683
302	69.733	43.733
301.9	69.676	43.712
301.8	69.655	43.696
301.699999	69.676	43.697
301.599999	69.643	43.658
301.5	69.625	43.686
301.4	69.604999	43.674
301.3	69.579	43.748
301.199999	69.563	43.692
301.099999	69.477	43.688
301	69.504	43.652
300.9	69.533999	43.723
300.8	69.496	43.717
300.699999	69.577999	43.659
300.599999	69.523	43.722
300.5	69.465	43.696
300.4	69.423999	43.671
300.3	69.363	43.66
300.199999	69.389	43.668
300.099999	69.335	43.647
300	69.34	43.668
299.9	69.295	43.618
299.8	69.321	43.661
299.699999	69.289999	43.667
299.599999	69.253	43.612
299.5	69.32	43.628
299.4	69.239999	43.644
299.3	69.223999	43.637
299.199999	69.218999	43.647
299.099999	69.221999	43.647
299	69.245	43.659
298.9	69.186	43.637
298.8	69.088	43.618
298.699999	69.081	43.569
298.599999	69.068	43.596
298.5	69.051	43.62
298.4	69.051	43.638
298.3	69.071	43.613
298.199999	69.095	43.592
298.099999	69.060999	43.581
298	68.998	43.567
297.9	68.950999	43.546
297.8	68.937	43.566
297.699999	68.899	43.567
297.599999	68.928	43.571
297.5	68.962	43.547999
297.4	68.957	43.521
297.3	68.931	43.501
297.199999	68.859	43.506
297.099999	68.831	43.524
297	68.791	43.539
296.9	68.825999	43.535
296.8	68.827	43.491
296.699999	68.805	43.501
296.599999	68.796	43.512
296.5	68.774	43.531
296.4	68.702	43.518
296.3	68.694	43.507
296.199999	68.672	43.509
296.099999	68.628999	43.524
296	68.671	43.518
295.9	68.589999	43.512
295.8	68.676999	43.504
295.699999	68.568	43.503
295.599999	68.572	43.522
295.5	68.52	43.433
295.4	68.497	43.48
295.3	68.554	43.451
295.199999	68.471	43.431
295.099999	68.458	43.434
295	68.406	43.439
294.9	68.396999	43.478
294.8	68.379	43.396
294.699999	68.327	43.414
294.599999	68.361999	43.456
294.5	68.337	43.448
294.4	68.233999	43.403
294.3	68.274999	43.415
294.199999	68.214	43.419
294.099999	68.226	43.451
294	68.19	43.41
293.9	68.203	43.358999
293.8	68.15	43.396
293.699999	68.203999	43.413
293.599999	68.200999	43.411
293.5	68.095	43.398
293.4	68.053	43.418
293.3	67.974	43.38
293.199999	68.001	43.366
293.099999	67.973	43.375
293	67.94	43.384
292.9	67.893	43.352
292.8	67.887	43.356
292.699999	67.92	43.361
292.599999	67.896999	43.349
292.5	67.824	43.35
292.4	67.828999	43.343
292.3	67.758	43.347
292.199999	67.715	43.352
292.099999	67.722	43.341
292	67.637	43.327
291.9	67.666	43.312
291.8	67.658	43.313
291.699999	67.608	43.293
291.599999	67.527	43.273
291.5	67.474	43.271
291.4	67.535	43.3
291.3	67.483999	43.289
291.199999	67.447	43.276
291.099999	67.422	43.279
291	67.467999	43.253
290.9	67.379	43.272
290.8	67.328	43.276
290.699999	67.324	43.274
290.599999	67.348	43.21
290.5	67.357	43.246
290.4	67.246	43.23
290.3	67.246	43.244
290.199999	67.203999	43.269
290.099999	67.176999	43.196
290	67.179	43.228
289.9	67.117999	43.22
289.8	67.093	43.185
289.699999	67.018999	43.191
289.599999	66.962999	43.175
289.5	66.93	43.163
289.4	66.907	43.168
289.3	66.871	43.192
289.199999	66.781	43.158
289.099999	66.834	43.208
289	66.786	43.174
288.9	66.71	43.16
288.8	66.617	43.151
288.699999	66.662	43.16
288.599999	66.62	43.144
288.5	66.577	43.151
288.4	66.545	43.15
288.3	66.506	43.118
288.199999	66.53	43.1
288.099999	66.51	43.136
288	66.377	43.129
287.9	66.339	43.107
287.8	66.322	43.098
287.699999	66.313999	43.079
287.599999	66.28	43.07
287.5	66.255	43.092
287.4	66.236999	43.078
287.3	66.186	43.052
287.199999	66.145	43.047
287.099999	66.09	43.074
287	66.046	43.097
286.9	66.013	43.038
286.8	65.943	43.027
286.699999	65.883	43.036
286.599999	65.844	43.02
286.5	65.818	43.046
286.4	65.82	43.027
286.3	65.778	42.984
286.199999	65.706	42.97
286.099999	65.708999	42.958
286	65.616	42.969
285.9	65.583	42.995
285.8	65.551999	42.978
285.699999	65.519	42.949
285.599999	65.47	42.924
285.5	65.422	42.937
285.4	65.411	42.933
285.3	65.357	42.939
285.199999	65.232	42.957
285.099999	65.227	42.932
285	65.223	42.903
284.9	65.154	42.898
284.8	65.108	42.891
284.699999	65.137	42.912
284.599999	65.113	42.863
284.5	64.992	42.855
284.4	64.98	42.875
284.3	64.91	42.838
284.199999	64.982	42.835
284.099999	64.869	42.868
284	64.782	42.806
283.9	64.804	42.794
283.8	64.736	42.858
283.699999	64.656	42.849
283.599999	64.629	42.836
283.5	64.566	42.824
283.4	64.625	42.776
283.3	64.585	42.775
283.199999	64.459	42.764
283.099999	64.441999	42.797
283	64.411	42.777
282.9	64.363	42.729
282.8	64.322	42.735
282.699999	64.293	42.73
282.599999	64.224	42.709
282.5	64.165	42.684
282.4	64.178	42.671
282.3	64.141	42.695
282.199999	64.110999	42.679
282.099999	64.054	42.641
282	63.999	42.666
281.9	63.883999	42.648
281.8	63.847	42.629
281.699999	63.845	42.616
281.599999	63.836	42.605
281.5	63.776	42.603
281.4	63.723	42.603
281.3	63.697	42.574
281.199999	63.685	42.537
281.099999	63.635	42.551
281	63.581	42.547
280.9	63.528	42.551
280.8	63.523	42.574
280.699999	63.466	42.539
280.599999	63.43	42.52
280.5	63.376	42.516
280.4	63.349	42.508
280.3	63.339	42.488
280.199999	63.282	42.462
280.099999	63.223	42.474
280	63.181	42.408
279.9	63.151	42.399
279.8	63.188999	42.444
279.699999	63.095	42.442
279.599999	63.032	42.389
279.5	63.019	42.365
279.4	62.971	42.364
279.3	62.946	42.367
279.199999	62.914	42.377
279.099999	62.921	42.341
279	62.793	42.364
278.9	62.831	42.349
278.8	62.802	42.357
278.699999	62.810999	42.353
278.599999	62.733	42.294
278.5	62.742	42.291
278.4	62.683	42.297
278.3	62.629	42.286
278.199999	62.666999	42.253
278.099999	62.562	42.283
278	62.498	42.23
277.9	62.455	42.218
277.8	62.491	42.204
277.699999	62.508	42.208
277.599999	62.444999	42.22
277.5	62.409	42.169
277.4	62.354	42.161
277.3	62.334999	42.131
277.199999	62.302	42.127
277.099999	62.276	42.105
277	62.268	42.118
276.9	62.266	42.128
276.8	62.236	42.114
276.699999	62.186	42.101
276.599999	62.196	42.106
276.5	62.198	42.085
276.4	62.191	42.074
276.3	62.15	42.05
276.199999	62.095	42.013
276.099999	62.116	42.021
276	62.092	42.052
275.9	62.08	42.024
275.8	62.049	42.007
275.699999	62.024	41.988
275.599999	62.025	41.993
275.5	62.024	41.997
275.4	62.024	41.986
275.3	61.97	41.921
275.199999	61.978	41.931
275.099999	61.948	41.954
275	61.913	41.939
274.9	61.944999	41.989
274.8	61.897	41.956
274.699999	61.97	41.941
274.599999	61.9	41.93
274.5	61.925	41.917
274.4	61.907	41.923
274.3	61.919999	41.895
274.199999	61.885	41.863
274.099999	61.839	41.882
274	61.858	41.875
273.9	61.927	41.872
273.8	61.913	41.877
273.699999	61.894	41.825
273.599999	61.846	41.817
273.5	61.827	41.841
273.4	61.917	41.852
273.3	61.882	41.829
273.199999	61.858	41.805
273.099999	61.864	41.779
273	61.909	41.786
272.9	61.912	41.784
272.8	61.955	41.761
272.699999	61.911	41.758
272.599999	61.947	41.755
272.5	61.956999	41.752
272.4	61.892	41.754
272.3	61.933	41.742
272.199999	61.943	41.732
272.099999	61.936	41.729
272	61.951	41.717
271.9	61.999	41.705
271.8	62.039999	41.686
271.699999	61.986	41.664
271.599999	61.972	41.673
271.5	62.017999	41.678
271.4	62.024	41.687
271.3	62.021	41.646
271.199999	62.067	41.624
271.099999	62.072	41.653
271	62.071	41.617
270.9	62.072	41.6
270.8	62.071	41.643
270.699999	62.099	41.647
270.599999	62.061	41.628
270.5	62.083	41.612
270.4	62.128	41.604
270.3	62.159	41.612
270.199999	62.197	41.62
270.099999	62.149	41.609
270	62.186	41.593999
269.9	62.258	41.575
269.8	62.256	41.574
269.699999	62.199	41.581
269.599999	62.252	41.581
269.5	62.248	41.56
269.4	62.287	41.566
269.3	62.28	41.552
269.199999	62.356	41.518
269.099999	62.334	41.525
269	62.366	41.521
268.9	62.407	41.519
268.8	62.372	41.49
268.699999	62.331	41.504
268.599999	62.422999	41.498
268.5	62.401	41.5
268.4	62.435	41.464
268.3	62.443	41.469
268.199999	62.436	41.459
268.099999	62.438	41.431
268	62.429	41.414
267.9	62.437	41.393
267.8	62.468	41.428
267.699999	62.449	41.408
267.599999	62.474	41.378
267.5	62.46	41.381
267.4	62.499	41.363
267.3	62.489	41.34
267.199999	62.472	41.366
267.099999	62.486	41.359
267	62.486	41.313
266.9	62.474	41.311
266.8	62.482	41.297
266.699999	62.483	41.272
266.599999	62.473	41.272
266.5	62.502	41.253
266.4	62.491	41.227
266.3	62.491	41.201
266.199999	62.504	41.204
266.099999	62.513	41.203
266	62.535	41.206
265.9	62.492999	41.202
265.8	62.471	41.183
265.699999	62.483	41.159
265.599999	62.515	41.14
265.5	62.485	41.115
265.4	62.480999	41.108
265.3	62.511	41.105
265.199999	62.461	41.089
265.099999	62.464	41.058
265	62.474	41.042
264.9	62.458	41.03
264.8	62.415	41.012
264.699999	62.412	40.981
264.599999	62.425	40.981
264.5	62.464	40.977999
264.4	62.478	40.936
264.3	62.417	40.933
264.199999	62.351	40.922
264.099999	62.389	40.906
264	62.404	40.895
263.9	62.371	40.892
263.8	62.322	40.858
263.699999	62.373	40.844
263.599999	62.395	40.822
263.5	62.364	40.818
263.4	62.355	40.788
263.3	62.324	40.794999
263.199999	62.326	40.779
263.099999	62.317	40.717
263	62.266	40.724
262.9	62.252	40.708
262.8	62.224	40.665
262.699999	62.248	40.657
262.599999	62.165	40.649
262.5	62.272	40.616
262.4	62.205	40.617
262.3	62.208	40.54
262.199999	62.2	40.579
262.099999	62.183	40.538999
262	62.158	40.517
261.9	62.116	40.531
261.8	62.11	40.505
261.699999	62.122	40.497
261.599999	62.082	40.445
261.5	62.09	40.451
261.4	62.095	40.424
261.3	62.082	40.405
261.199999	62.039999	40.411
261.099999	62.053	40.38
261	62.011	40.353
260.9	61.976	40.300999
260.8	61.935	40.271
260.699999	61.941	40.251
260.599999	61.973	40.257
260.5	61.927	40.23
260.4	61.882	40.186
260.3	61.858999	40.188
260.199999	61.885	40.177
260.099999	61.906	40.164
260	61.852	40.134
259.9	61.815	40.102
259.8	61.813	40.089
259.699999	61.783999	40.075
259.599999	61.746	40.052
259.5	61.761	40.016
259.4	61.755	40.013
259.3	61.685999	40.015
259.199999	61.654	39.971
259.099999	61.658	39.932
259	61.647	39.915
258.9	61.617999	39.907
258.8	61.571	39.875
258.699999	61.592	39.86
258.599999	61.567	39.823
258.5	61.553	39.793
258.4	61.522	39.748
258.3	61.476	39.773
258.199999	61.502	39.762
258.099999	61.448	39.727
258	61.48	39.722
257.9	61.387	39.693
257.8	61.434	39.649
257.699999	61.303	39.627
257.599999	61.306	39.62
257.5	61.35	39.611
257.4	61.34	39.571
257.3	61.304	39.541
257.199999	61.248	39.505
257.099999	61.195	39.462
257	61.268	39.463
256.9	61.17	39.428999
256.8	61.154	39.406
256.699999	61.178999	39.415
256.599999	61.117999	39.375
256.5	61.135	39.322
256.4	61.085	39.309
256.3	61.027	39.288
256.199999	61.005	39.279
256.099999	61.005	39.254
256	61.022	39.22
255.9	61	39.184
255.8	60.978	39.167
255.699999	60.987	39.127
255.599999	60.929999	39.102
255.5	60.902	39.082
255.4	60.864	39.064
255.3	60.855	39.037
255.199999	60.853	39.011
255.099999	60.811	38.994
255	60.736	38.962
254.9	60.762	38.928
254.8	60.794	38.907
254.699999	60.763	38.87
254.599999	60.756	38.844
254.5	60.756	38.822
254.4	60.74	38.797
254.3	60.712999	38.78
254.199999	60.692	38.767
254.099999	60.636999	38.727
254	60.608	38.686
253.9	60.626	38.661
253.8	60.6	38.64
253.699999	60.568	38.613
253.599999	60.551999	38.604
253.5	60.568	38.552
253.4	60.562	38.541
253.3	60.537	38.509
253.199999	60.533	38.47
253.099999	60.536	38.436
253	60.557	38.401
252.9	60.516	38.359
252.8	60.527	38.35
252.699999	60.492999	38.346
252.599999	60.478	38.298
252.5	60.479	38.251
252.4	60.458	38.239
252.3	60.431	38.22
252.199999	60.462	38.18
252.099999	60.407999	38.135
252	60.395	38.117
251.9	60.382	38.107
251.8	60.374	38.072
251.699999	60.375	38.038
251.599999	60.397	38.017
251.5	60.342	37.977
251.4	60.378	37.946
251.3	60.367	37.918
251.199999	60.367	37.887
251.099999	60.268999	37.856
251	60.277	37.815
250.9	60.297	37.761
250.8	60.302	37.749
250.699999	60.232	37.73
250.599999	60.232	37.694
250.5	60.219	37.645
250.4	60.199	37.637
250.3	60.209999	37.61
250.199999	60.171	37.578
250.099999	60.17	37.544
250	60.154	37.51
249.9	60.151	37.494
249.8	60.117	37.473
249.699999	60.096	37.437
249.599999	60.118	37.394
249.5	60.099999	37.34
249.4	60.082	37.3
249.3	60.067	37.287
249.199999	60.05	37.264
249.099999	60.053999	37.236999
249	60.046	37.197
248.9	59.997	37.143
248.8	59.976	37.11
248.699999	59.971	37.078
248.599999	59.946	37.04
248.5	59.919999	37.007
248.4	59.895	36.984
248.3	59.891	36.957
248.199999	59.861	36.915
248.099999	59.849	36.899
248	59.855999	36.878
247.9	59.873	36.835
247.8	59.838	36.779
247.699999	59.797	36.754
247.599999	59.792	36.735
247.5	59.766	36.698
247.4	59.775	36.646
247.3	59.741	36.628
247.199999	59.697	36.59
247.099999	59.709999	36.546
247	59.743	36.53
246.9	59.693	36.499
246.8	59.675	36.469
246.699999	59.63	36.434
246.599999	59.646999	36.38
246.5	59.607	36.36
246.4	59.594	36.306
246.3	59.534	36.288
246.199999	59.54	36.242999
246.099999	59.514	36.228
246	59.492999	36.2
245.9	59.475	36.163
245.8	59.491	36.122
245.699999	59.448	36.086
245.599999	59.423	36.06
245.5	59.419999	36.003
245.4	59.411	35.936
245.3	59.394	35.937
245.199999	59.406	35.895
245.099999	59.366	35.853
245	59.319999	35.797
244.9	59.321	35.777
244.8	59.331999	35.746
244.699999	59.324	35.72
244.599999	59.305	35.686
244.5	59.294	35.643
244.4	59.256	35.613
244.3	59.205	35.58
244.199999	59.156	35.54
244.099999	59.157	35.481
244	59.175	35.442
243.9	59.138	35.409
243.8	59.099	35.366
243.699999	59.103	35.343
243.599999	59.107	35.315
243.5	59.084	35.272
243.4	59.045	35.231
243.3	59.021	35.192
243.199999	59.035	35.152
243.099999	59.021	35.114
243	58.991	35.07
242.9	58.973	35.039
242.8	58.942	35.002
242.699999	58.907	34.96
242.599999	58.902	34.921
242.5	58.9	34.889
242.4	58.888	34.848
242.3	58.88	34.812
242.199999	58.84	34.751
242.099999	58.823	34.716
242	58.818	34.675
241.9	58.797999	34.642
241.8	58.812	34.614
241.699999	58.789	34.538999
241.599999	58.749	34.529
241.5	58.711	34.48
241.4	58.679	34.455
241.3	58.665	34.405
241.199999	58.653	34.361999
241.099999	58.660999	34.33
241	58.657	34.291
240.9	58.627	34.244
240.8	58.624	34.191
240.699999	58.558	34.146
240.599999	58.547	34.095
240.5	58.563	34.058
240.4	58.474	34.026
240.3	58.517	33.992
240.199999	58.503	33.92
240.099999	58.444	33.913
240	58.414	33.853
239.9	58.416	33.818
239.8	58.42	33.769
239.699999	58.395	33.711
239.599999	58.358	33.688
239.5	58.347	33.613
239.4	58.323	33.588
239.3	58.338	33.565
239.199999	58.298	33.51
239.099999	58.259	33.467
239	58.259	33.423
238.9	58.24	33.387
238.8	58.211	33.349
238.699999	58.186	33.307
238.599999	58.167	33.249
238.5	58.154	33.191
238.4	58.129	33.147
238.3	58.114	33.105
238.199999	58.071	33.054
238.099999	58.015	33.016
238	58.014	32.975
237.9	58.032	32.942
237.8	57.999	32.9
237.699999	57.977999	32.857
237.599999	57.963	32.814
237.5	57.926999	32.762
237.4	57.94	32.727
237.3	57.922	32.688
237.199999	57.861	32.62
237.099999	57.836	32.592
237	57.824	32.536
236.9	57.814	32.485
236.8	57.776	32.455
236.699999	57.751	32.402
236.599999	57.742	32.362
236.5	57.729	32.331
236.4	57.697	32.276
236.3	57.669	32.255
236.199999	57.657	32.194
236.099999	57.635	32.151999
236	57.601	32.109
235.9	57.582	32.071
235.8	57.560999	32.02
235.699999	57.524	31.989
235.599999	57.509	31.919
235.5	57.473	31.894
235.4	57.426999	31.862
235.3	57.413	31.82
235.199999	57.434	31.746
235.099999	57.364	31.722
235	57.374	31.687
234.9	57.357	31.634
234.8	57.294	31.613
234.699999	57.28	31.59
234.599999	57.259	31.515
234.5	57.25	31.471
234.4	57.233999	31.414
234.3	57.198	31.389
234.199999	57.172999	31.359
234.099999	57.164	31.299
234	57.124	31.255
233.9	57.091	31.232
233.8	57.060999	31.179
233.699999	57.032	31.152
233.599999	57.002	31.117
233.5	57.003	31.059
233.4	56.983	31.017
233.3	56.984	30.982
233.199999	56.937	30.948
233.099999	56.852999	30.908
233	56.79	30.868
232.9	56.796	30.831
232.8	56.782999	30.795
232.699999	56.76	30.762
232.599999	56.74	30.713
232.5	56.709	30.668
232.4	56.666	30.635
232.3	56.642	30.605
232.199999	56.598	30.564
232.099999	56.564	30.508
232	56.560999	30.48
231.9	56.523	30.446
231.8	56.501	30.402
231.699999	56.474	30.355
231.599999	56.425	30.334
231.5	56.386	30.292
231.4	56.352999	30.257
231.3	56.332	30.226
231.199999	56.305	30.184
231.099999	56.283	30.144
231	56.226	30.113
230.9	56.179	30.06
230.8	56.191	30.031
230.699999	56.136	29.995
230.599999	56.167999	29.952
230.5	56.094	29.917
230.4	55.997	29.864
230.3	56.015	29.831
230.199999	55.986	29.803
230.099999	55.928	29.761
230	55.92	29.712
229.9	55.835	29.698
229.8	55.84	29.647
229.699999	55.812	29.6
229.599999	55.753	29.568
229.5	55.717	29.535
229.4	55.727	29.498
229.3	55.659	29.464
229.199999	55.63	29.426
229.099999	55.54	29.37
229	55.545	29.358
228.9	55.489999	29.287
228.8	55.425	29.28
228.699999	55.407	29.236
228.599999	55.389999	29.204
228.5	55.318	29.159
228.4	55.296	29.116
228.3	55.279	29.077
228.199999	55.27	29.051
228.099999	55.189	29.013
228	55.151	28.977
227.9	55.106999	28.95
227.8	55.045999	28.904
227.699999	55.014	28.861
227.599999	54.978	28.828
227.5	54.93	28.788
227.4	54.88	28.758
227.3	54.821	28.712
227.199999	54.779	28.661
227.099999	54.738	28.625
227	54.691	28.584
226.9	54.645999	28.546
226.8	54.588	28.523
226.699999	54.52	28.493
226.599999	54.474	28.447
226.5	54.43	28.392
226.4	54.386999	28.357
226.3	54.352	28.329
226.199999	54.297	28.294
226.099999	54.247	28.248
226	54.159	28.208
225.9	54.124	28.171
225.8	54.032	28.143
225.699999	54.002	28.095
225.599999	53.952	28.044
225.5	53.888	28.008
225.4	53.831	27.975
225.3	53.761	27.952
225.199999	53.705	27.9
225.099999	53.669999	27.868
225	53.608	27.817
224.9	53.52	27.772
224.8	53.452	27.733
224.699999	53.406	27.711
224.599999	53.329	27.618
224.5	53.264	27.606
224.4	53.154	27.563
224.3	53.105999	27.54
224.199999	53.05	27.499
224.099999	52.994	27.441
224	52.917	27.404
223.9	52.861999	27.378
223.8	52.795	27.333
223.699999	52.715	27.297
223.599999	52.634	27.247
223.5	52.563	27.208
223.4	52.469	27.168
223.3	52.403	27.12
223.199999	52.337	27.084
223.099999	52.242999	27.032
223	52.158	26.988
222.9	52.096	26.966
222.8	51.98	26.912
222.699999	51.906	26.878
222.599999	51.814	26.823
222.5	51.721	26.791
222.4	51.649	26.763
222.3	51.563	26.724
222.199999	51.492	26.674
222.099999	51.447	26.626
222	51.357	26.588
221.9	51.243	26.549
221.8	51.16	26.509
221.699999	51.081	26.474
221.599999	50.989	26.437
221.5	50.9	26.394
221.4	50.841	26.35
221.3	50.759	26.295
221.199999	50.645	26.25
221.099999	50.569	26.208
221	50.477	26.167
220.9	50.41	26.138
220.8	50.322	26.095
220.699999	50.236	26.061
220.599999	50.181	26.026
220.5	50.1	25.973
220.4	49.999	25.933
220.3	49.913	25.909
220.199999	49.827	25.87
220.099999	49.739	25.81
220	49.671	25.78
219.9	49.587	25.737
219.8	49.521	25.701
219.699999	49.413	25.652
219.599999	49.377	25.605
219.5	49.272	25.549
219.4	49.186	25.544
219.3	49.114	25.485
219.199999	49.045	25.458
219.099999	48.973	25.431
219	48.91	25.396
218.9	48.829	25.349
218.8	48.669	25.301
218.699999	48.637	25.281
218.599999	48.548	25.216
218.5	48.476	25.171
218.4	48.382	25.145
218.3	48.329	25.086
218.199999	48.26	25.061
218.099999	48.186	25.023
218	48.109	24.993
217.9	48.016	24.948
217.8	47.938	24.901
217.699999	47.86	24.863
217.599999	47.739	24.824
217.5	47.672	24.795
217.4	47.618	24.766
217.3	47.539	24.717
217.199999	47.463	24.683
217.099999	47.388	24.649
217	47.33	24.61
216.9	47.26	24.57
216.8	47.176	24.534
216.699999	47.067	24.491
216.599999	46.98	24.451
216.5	46.926	24.407
216.4	46.851	24.36
216.3	46.761	24.318
216.199999	46.687	24.273
216.099999	46.611999	24.239
216	46.541	24.203
215.9	46.462	24.18
215.8	46.386	24.147
215.699999	46.303	24.097
215.599999	46.204	24.043
215.5	46.108	24.003
215.4	46.001	23.971
215.3	45.941	23.943
215.199999	45.889	23.901
215.099999	45.793	23.869
215	45.676	23.819
214.9	45.606	23.783
214.8	45.552	23.734
214.699999	45.421	23.7
214.599999	45.337	23.671
214.5	45.272	23.626
214.4	45.148	23.589
214.3	45.09	23.557
214.199999	44.971	23.503
214.099999	44.894	23.47
214	44.821	23.414
213.9	44.671	23.385
213.8	44.564	23.347
213.699999	44.453	23.323
213.599999	44.432	23.261
213.5	44.285	23.258
213.4	44.183	23.196
213.3	44.03	23.16
213.199999	43.893	23.089
213.099999	43.826	23.08
213	43.694	23.044
212.9	43.599	22.998
212.8	43.452	22.954
212.699999	43.389	22.934
212.599999	43.286	22.893
212.5	43.142	22.844
212.4	43.012	22.804
212.3	42.881	22.755
212.199999	42.751	22.733
212.099999	42.62	22.692
212	42.486	22.631
211.9	42.374	22.613
211.8	42.253	22.582
211.699999	42.134	22.545
211.599999	42.009	22.504
211.5	41.87	22.451
211.4	41.758	22.414
211.3	41.638	22.386
211.199999	41.5	22.346
211.099999	41.394	22.3
211	41.268	22.25
210.9	41.149	22.214
210.8	40.989	22.169
210.699999	40.827	22.123
210.599999	40.711	22.093
210.5	40.584	22.054
210.4	40.46	22.023
210.3	40.309	21.973
210.199999	40.159	21.923
210.099999	40.032	21.878
210	39.919	21.837
209.9	39.769	21.791
209.8	39.654	21.75
209.699999	39.548	21.705
209.599999	39.423	21.682
209.5	39.261	21.635
209.4	39.123	21.578
209.3	38.967	21.521
209.199999	38.84	21.482
209.099999	38.698	21.429
209	38.582	21.395
208.9	38.432	21.348
208.8	38.346999	21.314
208.699999	38.167	21.262
208.599999	38.017	21.203
208.5	37.872	21.135
208.4	37.705	21.07
208.3	37.561	21.034
208.199999	37.44	21.017
208.099999	37.279	20.923
208	37.148	20.902
207.9	36.95	20.856
207.8	36.836	20.797
207.699999	36.659	20.735
207.599999	36.496	20.699
207.5	36.347	20.633
207.4	36.241	20.589
207.3	36.06	20.504
207.199999	35.923	20.479
207.099999	35.758	20.417
207	35.572	20.36
206.9	35.398	20.294
206.8	35.255	20.242
206.699999	35.078	20.188
206.599999	34.929	20.146
206.5	34.758	20.081
206.4	34.618	20.026
206.3	34.425	19.966
206.199999	34.268	19.902
206.099999	34.099	19.82
206	33.911	19.763
205.9	33.764	19.71
205.8	33.593	19.665
205.699999	33.395	19.606
205.599999	33.251	19.531
205.5	33.121	19.449
205.4	32.958	19.384
205.3	32.792	19.343
205.199999	32.607	19.292
205.099999	32.447	19.23
205	32.287	19.153
204.9	32.122	19.097
204.8	31.95	19.031
204.699999	31.754	18.954
204.599999	31.606	18.898
204.5	31.432	18.822
204.4	31.267	18.742
204.3	31.129	18.684
204.199999	30.949	18.609
204.099999	30.817	18.56
204	30.636	18.494
203.9	30.452	18.434
203.8	30.262	18.37
203.699999	30.115	18.289
203.599999	29.938	18.24
203.5	29.8	18.177
203.4	29.608	18.077
203.3	29.456	18.044
203.199999	29.277	17.981
203.099999	29.11	17.902
203	28.916	17.829
202.9	28.732	17.754
202.8	28.584	17.707
202.699999	28.424	17.622
202.599999	28.242	17.54
202.5	28.128	17.515
202.4	27.892	17.421
202.3	27.735	17.365
202.199999	27.554	17.251
202.099999	27.374	17.199
202	27.193	17.143
201.9	27.035	17.072
201.8	26.858	16.982
201.699999	26.727	16.939
201.599999	26.487	16.849
201.5	26.323	16.765
201.4	26.145	16.684
201.3	25.959	16.629
201.199999	25.769	16.571
201.099999	25.58	16.5
201	25.411	16.433
200.9	25.258	16.385
200.8	25.049	16.311
200.699999	24.889	16.243
200.599999	24.693	16.188
200.5	24.496	16.093
200.4	24.337	16.017
200.3	24.16	15.945
200.199999	23.993	15.869
200.099999	23.837	15.814
200	23.625	
